Counter	AF3	F7	F3	FC5	T7	P7	O1	O2	P8	T8	FC6	F4	F8	AF4	GyroX	GyroY	Timestamp	FUNC_ID	FUNC_VALUE	MARKER	SYNC_SIGNAL	CMS_Q	DRL_Q	AF3_Q	F7_Q	F3_Q	FC5_Q	T7_Q	P7_Q	O1_Q	O2_Q	P8_Q	T8_Q	FC6_Q	F4_Q	F8_Q	AF4_Q	Blink	LeftWink	RightWink	EyesOpen	LeftEyeLid	RightEyelid
65.000000	4064.102564	4498.974359	4205.128205	4463.076923	4122.051282	4542.564103	4201.025641	4837.435897	4245.128205	4471.282051	4228.205128	4351.282051	4465.128205	4466.153846	1607.000000	2107.000000	33.709000	0.000000	0.000000	0.000000	0.000000	1	1	0	0	0	0	0	0	0	0	0	0	0	0	0	0	0	0	0	1	0.000	0.000
66.000000	4063.589744	4503.076923	4206.666667	4462.564103	4126.666667	4543.589744	4203.589744	4840.000000	4244.102564	4472.307692	4227.692308	4351.794872	4461.538462	4466.153846	1611.000000	2103.000000	33.717000	0.000000	0.000000	0.000000	0.000000	1	1	0	0	0	0	0	0	0	0	0	0	0	0	0	0	0	0	0	1	0.000	0.000
67.000000	4063.589744	4504.102564	4211.282051	4461.025641	4127.179487	4541.025641	4201.025641	4843.589744	4243.076923	4473.846154	4229.743590	4354.358974	4464.102564	4469.230769	1607.000000	2103.000000	33.725000	0.000000	0.000000	0.000000	0.000000	1	1	0	0	0	0	0	0	0	0	0	0	0	0	0	0	0	0	0	1	0.000	0.000
68.000000	4062.564103	4502.564103	4206.153846	4460.512821	4126.153846	4543.589744	4203.076923	4836.923077	4241.025641	4472.307692	4230.256410	4350.769231	4465.128205	4467.692308	1607.000000	2107.000000	33.732000	0.000000	0.000000	0.000000	0.000000	1	1	0	0	0	0	0	0	0	0	0	0	0	0	0	0	0	0	0	1	0.000	0.000
69.000000	4063.589744	4502.564103	4205.128205	4461.025641	4123.076923	4541.538462	4200.512821	4835.384615	4243.076923	4471.794872	4230.769231	4349.230769	4465.641026	4466.666667	1607.000000	2103.000000	33.740000	0.000000	0.000000	0.000000	0.000000	1	1	0	0	0	0	0	0	0	0	0	0	0	0	0	0	0	0	0	1	0.000	0.000
70.000000	4060.000000	4501.538462	4210.769231	4463.076923	4124.102564	4544.102564	4202.564103	4840.000000	4244.615385	4472.307692	4229.743590	4350.256410	4462.564103	4466.666667	1607.000000	2107.000000	33.748000	0.000000	0.000000	0.000000	0.000000	1	1	0	0	0	0	0	0	0	0	0	0	0	0	0	0	0	0	0	1	0.000	0.000
71.000000	4062.564103	4498.461538	4208.717949	4463.076923	4124.102564	4543.076923	4204.102564	4843.589744	4244.102564	4473.846154	4230.769231	4352.307692	4462.051282	4466.666667	1607.000000	2099.000000	33.756000	0.000000	0.000000	0.000000	0.000000	1	1	0	0	0	0	0	0	0	0	0	0	0	0	0	0	0	0	0	1	0.000	0.000
72.000000	4064.615385	4498.974359	4206.666667	4462.564103	4124.102564	4543.589744	4204.102564	4840.512821	4241.538462	4474.358974	4231.794872	4352.820513	4461.538462	4463.076923	1607.000000	2107.000000	33.764000	0.000000	0.000000	0.000000	0.000000	1	1	0	0	0	0	0	0	0	0	0	0	0	0	0	0	0	0	0	1	0.000	0.000
73.000000	4062.564103	4501.025641	4211.794872	4462.051282	4121.538462	4543.076923	4199.487179	4838.974359	4243.589744	4472.307692	4231.282051	4351.282051	4463.589744	4466.666667	1611.000000	2103.000000	33.772000	0.000000	0.000000	0.000000	0.000000	1	1	0	0	0	0	0	0	0	0	0	0	0	0	0	0	0	0	0	1	0.000	0.000
74.000000	4060.000000	4499.487179	4212.307692	4462.564103	4125.128205	4543.589744	4203.589744	4839.487179	4244.615385	4470.256410	4228.717949	4348.717949	4462.564103	4471.794872	1607.000000	2103.000000	33.780000	0.000000	0.000000	0.000000	0.000000	1	1	0	0	0	0	0	0	0	0	0	0	0	0	0	0	0	0	0	1	0.000	0.000
75.000000	4062.051282	4497.948718	4208.205128	4460.512821	4124.102564	4540.000000	4204.102564	4840.512821	4242.051282	4470.769231	4230.256410	4350.256410	4463.589744	4470.256410	1607.000000	2107.000000	33.788000	0.000000	0.000000	0.000000	0.000000	1	1	0	0	0	0	0	0	0	0	0	0	0	0	0	0	0	0	0	1	0.000	0.000
76.000000	4061.025641	4501.025641	4208.205128	4461.025641	4121.538462	4542.051282	4201.538462	4840.512821	4241.025641	4470.769231	4230.769231	4350.256410	4465.128205	4466.153846	1607.000000	2103.000000	33.795000	0.000000	0.000000	0.000000	0.000000	1	1	0	0	0	0	0	0	0	0	0	0	0	0	0	0	0	0	0	1	0.000	0.000
77.000000	4062.564103	4504.102564	4208.717949	4461.538462	4121.538462	4543.589744	4202.051282	4840.512821	4243.589744	4471.794872	4230.256410	4349.230769	4463.076923	4467.692308	1607.000000	2103.000000	33.803000	0.000000	0.000000	0.000000	0.000000	1	1	0	0	0	0	0	0	0	0	0	0	0	0	0	0	0	0	0	1	0.000	0.000
78.000000	4067.179487	4502.564103	4207.179487	4460.000000	4122.564103	4542.564103	4204.102564	4840.000000	4244.615385	4472.307692	4231.282051	4352.307692	4462.051282	4469.743590	1611.000000	2103.000000	33.811000	0.000000	0.000000	0.000000	0.000000	1	1	0	0	0	0	0	0	0	0	0	0	0	0	0	0	0	0	0	1	0.000	0.000
79.000000	4066.666667	4500.512821	4208.717949	4460.000000	4122.051282	4543.076923	4202.564103	4838.974359	4242.051282	4472.307692	4229.743590	4352.820513	4463.076923	4467.692308	1607.000000	2103.000000	33.819000	0.000000	0.000000	0.000000	0.000000	1	1	0	0	0	0	0	0	0	0	0	0	0	0	0	0	0	0	0	1	0.000	0.000
80.000000	4063.589744	4500.512821	4205.641026	4460.512821	4120.512821	4544.615385	4201.538462	4839.487179	4243.076923	4472.307692	4228.717949	4350.769231	4465.641026	4468.205128	1611.000000	2107.000000	33.827000	0.000000	0.000000	0.000000	0.000000	1	1	0	0	0	0	0	0	0	0	0	0	0	0	0	0	0	0	0	1	0.000	0.000
81.000000	4062.564103	4501.025641	4201.025641	4461.538462	4121.025641	4545.641026	4204.102564	4838.461538	4244.102564	4471.282051	4229.743590	4350.256410	4464.615385	4469.230769	1611.000000	2103.000000	33.835000	0.000000	0.000000	0.000000	0.000000	1	1	0	0	0	0	0	0	0	0	0	0	0	0	0	0	0	0	0	1	0.000	0.000
82.000000	4065.641026	4500.512821	4205.128205	4460.512821	4122.564103	4542.051282	4201.538462	4838.974359	4244.102564	4471.282051	4232.307692	4350.769231	4465.128205	4468.205128	1607.000000	2107.000000	33.843000	0.000000	0.000000	0.000000	0.000000	1	1	0	0	0	0	0	0	0	0	0	0	0	0	0	0	0	0	0	1	0.000	0.000
83.000000	4064.615385	4502.051282	4209.230769	4461.025641	4126.666667	4544.102564	4201.538462	4840.000000	4243.076923	4472.307692	4231.282051	4349.230769	4462.564103	4467.179487	1611.000000	2103.000000	33.851000	0.000000	0.000000	0.000000	0.000000	1	1	0	0	0	0	0	0	0	0	0	0	0	0	0	0	0	0	0	1	0.000	0.000
84.000000	4065.641026	4502.051282	4206.666667	4459.487179	4122.051282	4542.564103	4200.000000	4841.025641	4242.564103	4472.307692	4231.794872	4352.820513	4462.564103	4470.256410	1607.000000	2107.000000	33.859000	0.000000	0.000000	0.000000	0.000000	1	1	0	0	0	0	0	0	0	0	0	0	0	0	0	0	0	0	0	1	0.000	0.000
85.000000	4063.076923	4501.538462	4206.153846	4460.000000	4120.512821	4543.589744	4203.589744	4838.461538	4241.538462	4470.769231	4230.769231	4353.846154	4462.564103	4468.205128	1611.000000	2107.000000	33.866000	0.000000	0.000000	0.000000	0.000000	1	1	0	0	0	0	0	0	0	0	0	0	0	0	0	0	0	0	0	1	0.000	0.000
86.000000	4062.564103	4500.000000	4210.769231	4461.025641	4122.564103	4541.538462	4202.564103	4839.487179	4243.076923	4473.333333	4231.282051	4352.307692	4466.666667	4464.615385	1607.000000	2103.000000	33.874000	0.000000	0.000000	0.000000	0.000000	1	1	0	0	0	0	0	0	0	0	0	0	0	0	0	0	0	0	0	1	0.000	0.000
87.000000	4061.538462	4498.974359	4208.717949	4462.051282	4125.641026	4544.615385	4205.128205	4840.000000	4243.589744	4472.820513	4231.282051	4350.256410	4464.615385	4465.641026	1607.000000	2107.000000	33.882000	0.000000	0.000000	0.000000	0.000000	1	1	0	0	0	0	0	0	0	0	0	0	0	0	0	0	0	0	0	1	0.000	0.000
88.000000	4063.589744	4499.487179	4206.666667	4461.025641	4123.589744	4541.538462	4205.641026	4840.000000	4244.615385	4471.282051	4230.769231	4349.230769	4463.589744	4471.282051	1607.000000	2103.000000	33.890000	0.000000	0.000000	0.000000	0.000000	1	1	0	0	0	0	0	0	0	0	0	0	0	0	0	0	0	0	0	1	0.000	0.000
89.000000	4063.589744	4498.974359	4208.205128	4460.000000	4124.102564	4542.564103	4208.205128	4838.974359	4243.589744	4471.794872	4228.717949	4346.666667	4461.538462	4468.205128	1611.000000	2103.000000	33.898000	0.000000	0.000000	0.000000	0.000000	1	1	0	0	0	0	0	0	0	0	0	0	0	0	0	0	0	0	0	1	0.000	0.000
90.000000	4067.692308	4501.025641	4208.717949	4459.487179	4121.538462	4543.076923	4203.589744	4842.564103	4240.512821	4471.282051	4230.769231	4349.230769	4463.076923	4467.692308	1611.000000	2103.000000	33.906000	0.000000	0.000000	0.000000	0.000000	1	1	0	0	0	0	0	0	0	0	0	0	0	0	0	0	0	0	0	1	0.000	0.000
91.000000	4066.153846	4502.051282	4207.179487	4461.025641	4122.051282	4544.615385	4203.076923	4842.051282	4240.512821	4468.717949	4231.282051	4351.282051	4463.589744	4469.743590	1607.000000	2107.000000	33.914000	0.000000	0.000000	0.000000	0.000000	1	1	0	0	0	0	0	0	0	0	0	0	0	0	0	0	0	0	0	1	0.000	0.000
92.000000	4062.051282	4498.461538	4208.205128	4460.512821	4121.538462	4542.051282	4201.538462	4840.000000	4244.615385	4471.282051	4229.230769	4349.743590	4464.102564	4469.230769	1611.000000	2103.000000	33.922000	0.000000	0.000000	0.000000	0.000000	1	1	0	0	0	0	0	0	0	0	0	0	0	0	0	0	0	0	0	1	0.000	0.000
93.000000	4062.051282	4499.487179	4211.282051	4460.512821	4121.025641	4543.589744	4202.051282	4841.538462	4244.615385	4473.846154	4228.717949	4350.256410	4463.076923	4466.666667	1607.000000	2103.000000	33.930000	0.000000	0.000000	0.000000	0.000000	1	1	0	0	0	0	0	0	0	0	0	0	0	0	0	0	0	0	0	1	0.000	0.000
94.000000	4065.641026	4503.076923	4209.743590	4460.512821	4120.512821	4542.564103	4203.589744	4842.051282	4243.076923	4470.769231	4230.769231	4352.820513	4465.641026	4469.230769	1611.000000	2107.000000	33.937000	0.000000	0.000000	0.000000	0.000000	1	1	0	0	0	0	0	0	0	0	0	0	0	0	0	0	0	0	0	1	0.000	0.000
95.000000	4065.128205	4501.025641	4206.666667	4461.025641	4123.589744	4542.564103	4206.666667	4838.461538	4244.102564	4469.230769	4230.256410	4349.743590	4464.615385	4468.205128	1611.000000	2103.000000	33.945000	0.000000	0.000000	0.000000	0.000000	1	1	0	0	0	0	0	0	0	0	0	0	0	0	0	0	0	0	0	1	0.000	0.000
96.000000	4064.615385	4497.435897	4207.179487	4461.538462	4125.128205	4542.564103	4204.102564	4839.487179	4244.615385	4470.256410	4230.769231	4348.205128	4463.589744	4465.128205	1611.000000	2103.000000	33.953000	0.000000	0.000000	0.000000	0.000000	1	1	0	0	0	0	0	0	0	0	0	0	0	0	0	0	0	0	0	1	0.000	0.000
97.000000	4063.589744	4500.000000	4207.179487	4461.025641	4123.076923	4542.051282	4200.512821	4841.025641	4243.589744	4470.769231	4231.794872	4351.794872	4466.666667	4468.205128	1607.000000	2103.000000	33.961000	0.000000	0.000000	0.000000	0.000000	1	1	0	0	0	0	0	0	0	0	0	0	0	0	0	0	0	0	0	1	0.000	0.000
98.000000	4062.051282	4503.076923	4207.692308	4461.538462	4123.589744	4543.076923	4202.564103	4838.461538	4243.589744	4470.769231	4229.230769	4351.794872	4463.589744	4471.282051	1611.000000	2107.000000	33.969000	0.000000	0.000000	0.000000	0.000000	1	1	0	0	0	0	0	0	0	0	0	0	0	0	0	0	0	0	0	1	0.000	0.000
99.000000	4062.051282	4501.025641	4208.205128	4463.076923	4123.589744	4543.076923	4204.615385	4840.000000	4244.102564	4471.794872	4228.205128	4348.717949	4460.512821	4468.205128	1611.000000	2099.000000	33.977000	0.000000	0.000000	0.000000	0.000000	1	1	0	0	0	0	0	0	0	0	0	0	0	0	0	0	0	0	0	1	0.000	0.000
100.000000	4062.051282	4497.948718	4209.230769	4461.538462	4123.076923	4544.102564	4204.615385	4842.051282	4244.615385	4471.282051	4229.230769	4347.692308	4462.564103	4465.641026	1607.000000	2107.000000	33.985000	0.000000	0.000000	0.000000	0.000000	1	1	0	0	0	0	0	0	0	0	0	0	0	0	0	0	0	0	0	1	0.000	0.000
101.000000	4064.102564	4497.435897	4209.743590	4459.487179	4121.025641	4543.589744	4201.538462	4840.000000	4245.128205	4471.794872	4227.179487	4351.282051	4463.589744	4469.743590	1615.000000	2103.000000	33.993000	0.000000	0.000000	0.000000	0.000000	1	1	0	0	0	0	0	0	0	0	0	0	0	0	0	0	0	0	0	1	0.000	0.000
102.000000	4064.615385	4502.564103	4207.692308	4462.051282	4123.589744	4543.589744	4204.615385	4840.000000	4242.051282	4472.307692	4225.641026	4353.333333	4460.000000	4470.769231	1611.000000	2103.000000	34.000000	0.000000	0.000000	0.000000	0.000000	1	1	0	0	0	0	0	0	0	0	0	0	0	0	0	0	0	0	0	1	0.000	0.000
103.000000	4066.153846	4504.615385	4206.153846	4461.538462	4121.538462	4538.461538	4201.025641	4844.615385	4241.538462	4472.820513	4232.307692	4352.307692	4465.641026	4468.717949	1611.000000	2103.000000	34.008000	0.000000	0.000000	0.000000	0.000000	1	1	0	0	0	0	0	0	0	0	0	0	0	0	0	0	0	0	0	1	0.000	0.000
104.000000	4062.564103	4498.974359	4207.692308	4460.512821	4122.051282	4542.564103	4200.000000	4842.051282	4243.589744	4472.307692	4234.358974	4349.743590	4465.641026	4465.128205	1607.000000	2107.000000	34.016000	0.000000	0.000000	0.000000	0.000000	1	1	0	0	0	0	0	0	0	0	0	0	0	0	0	0	0	0	0	1	0.000	0.000
105.000000	4061.538462	4497.948718	4208.205128	4461.025641	4123.076923	4543.076923	4199.487179	4841.025641	4244.615385	4470.769231	4233.333333	4353.333333	4463.589744	4467.692308	1611.000000	2103.000000	34.024000	0.000000	0.000000	0.000000	0.000000	1	1	0	0	0	0	0	0	0	0	0	0	0	0	0	0	0	0	0	1	0.000	0.000
106.000000	4062.051282	4500.512821	4207.692308	4461.538462	4123.076923	4543.589744	4205.641026	4839.487179	4240.512821	4471.282051	4232.307692	4353.333333	4462.564103	4468.717949	1607.000000	2103.000000	34.032000	0.000000	0.000000	0.000000	0.000000	1	1	0	0	0	0	0	0	0	0	0	0	0	0	0	0	0	0	0	1	0.000	0.000
107.000000	4065.128205	4500.512821	4205.128205	4458.974359	4120.000000	4542.051282	4205.641026	4840.000000	4241.025641	4473.846154	4232.820513	4351.794872	4463.589744	4469.743590	1611.000000	2107.000000	34.040000	0.000000	0.000000	0.000000	0.000000	1	1	0	0	0	0	0	0	0	0	0	0	0	0	0	0	0	0	0	1	0.000	0.000
108.000000	4063.076923	4502.564103	4202.051282	4461.025641	4123.589744	4545.641026	4207.179487	4841.025641	4244.102564	4473.333333	4232.307692	4351.282051	4461.538462	4468.717949	1611.000000	2103.000000	34.048000	0.000000	0.000000	0.000000	0.000000	1	1	0	0	0	0	0	0	0	0	0	0	0	0	0	0	0	0	0	1	0.000	0.000
109.000000	4062.564103	4504.615385	4203.076923	4463.076923	4125.128205	4541.025641	4203.589744	4841.025641	4244.615385	4472.820513	4234.358974	4352.820513	4464.615385	4468.717949	1607.000000	2107.000000	34.056000	0.000000	0.000000	0.000000	0.000000	1	1	0	0	0	0	0	0	0	0	0	0	0	0	0	0	0	0	0	1	0.000	0.000
110.000000	4061.538462	4500.000000	4202.564103	4462.564103	4125.128205	4541.538462	4204.102564	4839.487179	4241.025641	4472.307692	4232.820513	4350.769231	4464.102564	4469.230769	1611.000000	2103.000000	34.063000	0.000000	0.000000	0.000000	0.000000	1	1	0	0	0	0	0	0	0	0	0	0	0	0	0	0	0	0	0	1	0.000	0.000
111.000000	4062.564103	4497.435897	4203.076923	4460.000000	4124.615385	4543.076923	4203.589744	4841.025641	4241.025641	4471.794872	4230.769231	4349.743590	4462.051282	4470.256410	1607.000000	2107.000000	34.071000	0.000000	0.000000	0.000000	0.000000	1	1	0	0	0	0	0	0	0	0	0	0	0	0	0	0	0	0	0	1	0.000	0.000
112.000000	4063.589744	4502.051282	4210.256410	4460.000000	4123.076923	4543.076923	4203.589744	4840.512821	4244.102564	4471.794872	4230.769231	4350.769231	4463.076923	4469.230769	1611.000000	2103.000000	34.079000	0.000000	0.000000	0.000000	0.000000	1	1	0	0	0	0	0	0	0	0	0	0	0	0	0	0	0	0	0	1	0.000	0.000
113.000000	4064.102564	4500.512821	4213.333333	4462.051282	4122.051282	4540.000000	4203.076923	4837.435897	4242.564103	4472.820513	4231.282051	4350.769231	4466.153846	4468.205128	1607.000000	2103.000000	34.087000	0.000000	0.000000	0.000000	0.000000	1	1	0	0	0	0	0	0	0	0	0	0	0	0	0	0	0	0	0	1	0.000	0.000
114.000000	4062.564103	4497.435897	4208.205128	4462.051282	4127.179487	4542.051282	4205.128205	4839.487179	4240.512821	4471.282051	4229.743590	4351.794872	4465.128205	4467.692308	1611.000000	2107.000000	34.095000	0.000000	0.000000	0.000000	0.000000	1	1	0	0	0	0	0	0	0	0	0	0	0	0	0	0	0	0	0	1	0.000	0.000
115.000000	4061.025641	4500.512821	4209.743590	4459.487179	4126.153846	4543.589744	4202.564103	4843.589744	4243.076923	4471.282051	4229.230769	4352.820513	4462.051282	4466.666667	1607.000000	2103.000000	34.103000	0.000000	0.000000	0.000000	0.000000	1	1	0	0	0	0	0	0	0	0	0	0	0	0	0	0	0	0	0	1	0.000	0.000
116.000000	4062.051282	4502.051282	4214.358974	4459.487179	4120.000000	4540.000000	4199.487179	4842.564103	4244.102564	4472.820513	4231.794872	4352.307692	4462.051282	4466.666667	1611.000000	2107.000000	34.111000	0.000000	0.000000	0.000000	0.000000	1	1	0	0	0	0	0	0	0	0	0	0	0	0	0	0	0	0	0	1	0.000	0.000
117.000000	4063.076923	4501.025641	4208.717949	4461.025641	4123.076923	4540.000000	4202.051282	4840.000000	4242.051282	4470.769231	4233.333333	4351.794872	4465.641026	4467.179487	1611.000000	2103.000000	34.119000	0.000000	0.000000	0.000000	0.000000	1	1	0	0	0	0	0	0	0	0	0	0	0	0	0	0	0	0	0	1	0.000	0.000
118.000000	4063.589744	4500.000000	4207.692308	4460.000000	4125.641026	4542.564103	4202.051282	4840.512821	4243.589744	4470.256410	4231.794872	4354.871795	4468.205128	4469.230769	1607.000000	2103.000000	34.127000	0.000000	0.000000	0.000000	0.000000	1	1	0	0	0	0	0	0	0	0	0	0	0	0	0	0	0	0	0	1	0.000	0.000
119.000000	4062.051282	4501.538462	4211.794872	4460.000000	4123.589744	4543.076923	4202.564103	4841.025641	4244.102564	4472.307692	4229.230769	4353.333333	4461.538462	4469.230769	1607.000000	2107.000000	34.134000	0.000000	0.000000	0.000000	0.000000	1	1	0	0	0	0	0	0	0	0	0	0	0	0	0	0	0	0	0	1	0.000	0.000
120.000000	4063.076923	4501.025641	4208.717949	4460.000000	4122.564103	4540.000000	4201.025641	4839.487179	4242.051282	4473.333333	4231.794872	4350.256410	4458.974359	4466.666667	1611.000000	2103.000000	34.142000	0.000000	0.000000	0.000000	0.000000	1	1	0	0	0	0	0	0	0	0	0	0	0	0	0	0	0	0	0	1	0.000	0.000
121.000000	4063.076923	4496.923077	4206.153846	4460.000000	4127.179487	4544.102564	4201.025641	4837.435897	4240.512821	4470.769231	4231.282051	4350.769231	4464.102564	4465.128205	1607.000000	2107.000000	34.150000	0.000000	0.000000	0.000000	0.000000	1	1	0	0	0	0	0	0	0	0	0	0	0	0	0	0	0	0	0	1	0.000	0.000
122.000000	4064.102564	4498.974359	4211.282051	4460.512821	4123.589744	4543.076923	4197.948718	4841.025641	4243.076923	4468.717949	4229.230769	4352.307692	4469.743590	4470.256410	1615.000000	2103.000000	34.158000	0.000000	0.000000	0.000000	0.000000	1	1	0	0	0	0	0	0	0	0	0	0	0	0	0	0	0	0	0	1	0.000	0.000
123.000000	4062.564103	4505.128205	4210.256410	4463.076923	4122.564103	4544.102564	4204.102564	4840.000000	4244.615385	4468.717949	4228.205128	4350.769231	4463.076923	4470.256410	1607.000000	2103.000000	34.166000	0.000000	0.000000	0.000000	0.000000	1	1	0	0	0	0	0	0	0	0	0	0	0	0	0	0	0	0	0	1	0.000	0.000
124.000000	4065.641026	4501.538462	4203.589744	4461.538462	4124.615385	4541.538462	4204.615385	4836.923077	4244.102564	4472.820513	4231.794872	4351.794872	4461.538462	4468.205128	1611.000000	2107.000000	34.174000	0.000000	0.000000	0.000000	0.000000	1	1	0	0	0	0	0	0	0	0	0	0	0	0	0	0	0	0	0	1	0.000	0.000
125.000000	4065.128205	4497.948718	4206.666667	4460.512821	4127.692308	4542.564103	4204.615385	4838.461538	4241.538462	4473.333333	4232.307692	4349.230769	4463.076923	4468.717949	1607.000000	2103.000000	34.182000	0.000000	0.000000	0.000000	0.000000	1	1	0	0	0	0	0	0	0	0	0	0	0	0	0	0	0	0	0	1	0.000	0.000
126.000000	4065.128205	4502.564103	4210.256410	4461.025641	4122.564103	4540.512821	4203.076923	4843.076923	4243.076923	4469.230769	4230.256410	4350.256410	4464.102564	4471.282051	1611.000000	2107.000000	34.190000	0.000000	0.000000	0.000000	0.000000	1	1	0	0	0	0	0	0	0	0	0	0	0	0	0	0	0	0	0	1	0.000	0.000
127.000000	4063.076923	4501.025641	4205.641026	4462.051282	4121.538462	4543.589744	4205.641026	4837.948718	4242.564103	4468.717949	4227.179487	4351.794872	4460.512821	4466.666667	1611.000000	2107.000000	34.197000	0.000000	0.000000	0.000000	0.000000	1	1	0	0	0	0	0	0	0	0	0	0	0	0	0	0	0	0	0	1	0.000	0.000
128.000000	4064.615385	4496.923077	4204.615385	4461.025641	4123.076923	4540.512821	4202.564103	4835.897436	4241.538462	4473.846154	4229.230769	4351.794872	4460.512821	4468.205128	1611.000000	2107.000000	34.205000	0.000000	0.000000	0.000000	0.000000	1	1	0	0	0	0	0	0	0	0	0	0	0	0	0	0	0	0	0	1	0.000	0.000
0.000000	4065.128205	4500.000000	4208.717949	4462.564103	4122.051282	4540.512821	4203.589744	4841.025641	4241.538462	4472.820513	4232.820513	4350.256410	4461.025641	4471.794872	1611.000000	2103.000000	34.213000	0.000000	0.000000	0.000000	0.000000	1	1	0	0	0	0	0	0	0	0	0	0	0	0	0	0	0	0	0	1	0.000	0.000
1.000000	4068.205128	4500.512821	4208.717949	4462.564103	4120.000000	4543.076923	4204.615385	4842.051282	4245.128205	4471.282051	4233.333333	4351.794872	4464.615385	4469.230769	1607.000000	2107.000000	34.221000	0.000000	0.000000	0.000000	0.000000	1	1	0	0	0	0	0	0	0	0	0	0	0	0	0	0	0	0	0	1	0.000	0.000
2.000000	4067.179487	4498.974359	4205.641026	4460.512821	4124.615385	4545.128205	4204.615385	4839.487179	4245.641026	4473.333333	4230.769231	4353.846154	4464.102564	4464.615385	1611.000000	2103.000000	34.229000	0.000000	0.000000	0.000000	0.000000	1	1	0	0	0	0	0	0	0	0	0	0	0	0	0	0	0	0	0	1	0.000	0.000
3.000000	4063.076923	4501.538462	4205.128205	4458.974359	4126.153846	4543.589744	4203.076923	4842.051282	4243.076923	4472.307692	4230.256410	4352.307692	4461.538462	4467.179487	1607.000000	2103.000000	34.237000	0.000000	0.000000	0.000000	0.000000	1	1	0	0	0	0	0	0	0	0	0	0	0	0	0	0	0	0	0	1	0.000	0.000
4.000000	4062.051282	4500.512821	4206.666667	4459.487179	4124.102564	4543.589744	4203.076923	4843.076923	4242.051282	4469.743590	4230.256410	4350.256410	4463.076923	4469.230769	1611.000000	2107.000000	34.245000	0.000000	0.000000	0.000000	0.000000	1	1	0	0	0	0	0	0	0	0	0	0	0	0	0	0	0	0	0	1	0.000	0.000
5.000000	4063.589744	4499.487179	4207.692308	4461.025641	4125.128205	4542.051282	4203.589744	4838.974359	4241.538462	4471.282051	4230.769231	4349.230769	4464.615385	4466.153846	1611.000000	2103.000000	34.253000	0.000000	0.000000	0.000000	0.000000	1	1	0	0	0	0	0	0	0	0	0	0	0	0	0	0	0	0	0	1	0.000	0.000
6.000000	4064.615385	4502.051282	4208.205128	4460.512821	4125.128205	4542.051282	4203.076923	4840.512821	4240.512821	4473.333333	4232.307692	4350.256410	4463.589744	4467.179487	1611.000000	2103.000000	34.260000	0.000000	0.000000	0.000000	0.000000	1	1	0	0	0	0	0	0	0	0	0	0	0	0	0	0	0	0	0	1	0.000	0.000
7.000000	4064.615385	4501.538462	4207.692308	4460.000000	4125.641026	4543.589744	4203.589744	4843.076923	4241.025641	4471.794872	4231.794872	4351.282051	4462.564103	4469.743590	1607.000000	2107.000000	34.268000	0.000000	0.000000	0.000000	0.000000	1	1	0	0	0	0	0	0	0	0	0	0	0	0	0	0	0	0	0	1	0.000	0.000
8.000000	4069.230769	4498.461538	4202.051282	4459.487179	4126.153846	4542.051282	4201.025641	4839.487179	4241.538462	4470.769231	4230.769231	4351.282051	4465.128205	4469.230769	1611.000000	2111.000000	34.276000	0.000000	0.000000	0.000000	0.000000	1	1	0	0	0	0	0	0	0	0	0	0	0	0	0	0	0	0	0	1	0.000	0.000
9.000000	4066.666667	4500.512821	4200.000000	4461.538462	4126.153846	4544.102564	4201.025641	4836.410256	4240.000000	4472.820513	4230.256410	4351.794872	4464.102564	4467.179487	1611.000000	2103.000000	34.284000	0.000000	0.000000	0.000000	0.000000	1	1	0	0	0	0	0	0	0	0	0	0	0	0	0	0	0	0	0	1	0.000	0.000
10.000000	4062.051282	4501.025641	4205.128205	4462.564103	4121.025641	4542.564103	4200.512821	4840.512821	4241.025641	4474.358974	4232.307692	4354.871795	4464.615385	4468.717949	1607.000000	2111.000000	34.292000	0.000000	0.000000	0.000000	0.000000	1	1	0	0	0	0	0	0	0	0	0	0	0	0	0	0	0	0	0	1	0.000	0.000
11.000000	4064.102564	4498.461538	4206.153846	4462.051282	4122.564103	4543.076923	4203.076923	4841.025641	4242.051282	4472.307692	4230.256410	4354.358974	4463.076923	4468.717949	1611.000000	2103.000000	34.300000	0.000000	0.000000	0.000000	0.000000	1	1	0	0	0	0	0	0	0	0	0	0	0	0	0	0	0	0	0	1	0.000	0.000
12.000000	4069.230769	4497.948718	4204.615385	4462.051282	4123.589744	4542.051282	4202.051282	4837.948718	4244.615385	4472.307692	4227.692308	4350.769231	4463.076923	4467.179487	1611.000000	2103.000000	34.308000	0.000000	0.000000	0.000000	0.000000	1	1	0	0	0	0	0	0	0	0	0	0	0	0	0	0	0	0	0	1	0.000	0.000
13.000000	4064.615385	4501.538462	4205.641026	4462.051282	4122.051282	4546.153846	4204.102564	4836.923077	4245.128205	4472.307692	4228.717949	4349.230769	4460.512821	4465.641026	1611.000000	2107.000000	34.316000	0.000000	0.000000	0.000000	0.000000	1	1	0	0	0	0	0	0	0	0	0	0	0	0	0	0	0	0	0	1	0.000	0.000
14.000000	4063.076923	4501.025641	4208.205128	4460.000000	4119.487179	4542.051282	4200.512821	4839.487179	4245.641026	4470.769231	4231.794872	4354.358974	4463.076923	4469.743590	1607.000000	2107.000000	34.324000	0.000000	0.000000	0.000000	0.000000	1	1	0	0	0	0	0	0	0	0	0	0	0	0	0	0	0	0	0	1	0.000	0.000
15.000000	4063.589744	4497.948718	4209.230769	4461.025641	4124.615385	4543.076923	4203.589744	4840.000000	4244.615385	4470.256410	4229.743590	4355.384615	4464.615385	4471.282051	1611.000000	2107.000000	34.331000	0.000000	0.000000	0.000000	0.000000	1	1	0	0	0	0	0	0	0	0	0	0	0	0	0	0	0	0	0	1	0.000	0.000
16.000000	4063.589744	4497.948718	4209.743590	4460.512821	4124.615385	4542.564103	4202.564103	4843.076923	4245.641026	4472.820513	4228.205128	4353.333333	4467.179487	4469.743590	1607.000000	2103.000000	34.339000	0.000000	0.000000	0.000000	0.000000	1	1	0	0	0	0	0	0	0	0	0	0	0	0	0	0	0	0	0	1	0.000	0.000
17.000000	4063.076923	4501.538462	4208.717949	4460.512821	4122.051282	4545.128205	4202.051282	4840.512821	4244.615385	4471.794872	4229.743590	4351.794872	4465.128205	4465.641026	1611.000000	2107.000000	34.347000	0.000000	0.000000	0.000000	0.000000	1	1	0	0	0	0	0	0	0	0	0	0	0	0	0	0	0	0	0	1	0.000	0.000
18.000000	4068.717949	4501.538462	4208.717949	4461.538462	4120.000000	4543.589744	4200.000000	4839.487179	4244.615385	4472.307692	4230.256410	4352.307692	4463.076923	4467.692308	1611.000000	2103.000000	34.355000	0.000000	0.000000	0.000000	0.000000	1	1	0	0	0	0	0	0	0	0	0	0	0	0	0	0	0	0	0	1	0.000	0.000
19.000000	4068.205128	4501.025641	4209.743590	4462.051282	4121.538462	4542.051282	4202.564103	4842.564103	4244.615385	4473.846154	4227.692308	4350.769231	4461.538462	4470.256410	1607.000000	2107.000000	34.363000	0.000000	0.000000	0.000000	0.000000	1	1	0	0	0	0	0	0	0	0	0	0	0	0	0	0	0	0	0	1	0.000	0.000
20.000000	4065.641026	4500.512821	4206.153846	4460.000000	4121.538462	4540.512821	4203.589744	4843.076923	4244.102564	4471.282051	4230.256410	4350.769231	4462.051282	4469.743590	1611.000000	2107.000000	34.371000	0.000000	0.000000	0.000000	0.000000	1	1	0	0	0	0	0	0	0	0	0	0	0	0	0	0	0	0	0	1	0.000	0.000
21.000000	4066.153846	4499.487179	4202.051282	4460.512821	4121.538462	4543.589744	4205.128205	4837.435897	4242.564103	4467.692308	4232.307692	4353.846154	4461.025641	4468.717949	1611.000000	2107.000000	34.379000	0.000000	0.000000	0.000000	0.000000	1	1	0	0	0	0	0	0	0	0	0	0	0	0	0	0	0	0	0	1	0.000	0.000
22.000000	4067.692308	4500.000000	4203.589744	4461.025641	4121.538462	4543.076923	4203.589744	4837.948718	4244.102564	4469.230769	4229.230769	4354.358974	4463.589744	4470.769231	1611.000000	2103.000000	34.387000	0.000000	0.000000	0.000000	0.000000	1	1	0	0	0	0	0	0	0	0	0	0	0	0	0	0	0	0	0	1	0.000	0.000
23.000000	4064.102564	4501.025641	4208.717949	4461.025641	4122.051282	4541.025641	4202.564103	4843.076923	4246.153846	4473.846154	4228.205128	4351.794872	4465.641026	4469.230769	1607.000000	2103.000000	34.394000	0.000000	0.000000	0.000000	0.000000	1	1	0	0	0	0	0	0	0	0	0	0	0	0	0	0	0	0	0	1	0.000	0.000
24.000000	4063.076923	4500.512821	4211.282051	4461.538462	4122.564103	4542.051282	4203.076923	4841.025641	4245.128205	4474.358974	4231.282051	4349.230769	4463.589744	4467.692308	1611.000000	2107.000000	34.402000	0.000000	0.000000	0.000000	0.000000	1	1	0	0	0	0	0	0	0	0	0	0	0	0	0	0	0	0	0	1	0.000	0.000
25.000000	4066.153846	4500.000000	4209.743590	4460.512821	4120.512821	4542.051282	4200.512821	4838.461538	4243.589744	4471.282051	4233.333333	4350.769231	4464.615385	4469.743590	1607.000000	2107.000000	34.410000	0.000000	0.000000	0.000000	0.000000	1	1	0	0	0	0	0	0	0	0	0	0	0	0	0	0	0	0	0	1	0.000	0.000
26.000000	4064.615385	4501.538462	4209.743590	4460.000000	4121.025641	4542.564103	4203.076923	4840.000000	4244.102564	4470.256410	4233.333333	4352.307692	4466.666667	4468.717949	1611.000000	2107.000000	34.418000	0.000000	0.000000	0.000000	0.000000	1	1	0	0	0	0	0	0	0	0	0	0	0	0	0	0	0	0	0	1	0.000	0.000
27.000000	4064.615385	4502.564103	4207.179487	4457.948718	4122.564103	4542.051282	4205.641026	4843.589744	4245.128205	4472.307692	4233.333333	4352.307692	4465.128205	4467.692308	1611.000000	2107.000000	34.426000	0.000000	0.000000	0.000000	0.000000	1	1	0	0	0	0	0	0	0	0	0	0	0	0	0	0	0	0	0	1	0.000	0.000
28.000000	4065.128205	4501.538462	4203.076923	4459.487179	4123.589744	4544.102564	4205.641026	4843.076923	4243.589744	4473.846154	4231.282051	4350.769231	4462.051282	4470.256410	1611.000000	2103.000000	34.434000	0.000000	0.000000	0.000000	0.000000	1	1	0	0	0	0	0	0	0	0	0	0	0	0	0	0	0	0	0	1	0.000	0.000
29.000000	4064.615385	4500.000000	4206.666667	4461.025641	4122.051282	4542.051282	4203.076923	4842.564103	4244.102564	4475.897436	4232.307692	4352.307692	4466.153846	4472.820513	1611.000000	2107.000000	34.442000	0.000000	0.000000	0.000000	0.000000	1	1	0	0	0	0	0	0	0	0	0	0	0	0	0	0	0	0	0	1	0.000	0.000
30.000000	4061.538462	4502.051282	4208.717949	4462.564103	4125.128205	4543.589744	4206.153846	4840.000000	4245.128205	4473.333333	4231.282051	4352.820513	4463.589744	4468.717949	1615.000000	2103.000000	34.450000	0.000000	0.000000	0.000000	0.000000	1	1	0	0	0	0	0	0	0	0	0	0	0	0	0	0	0	0	0	1	0.000	0.000
31.000000	4064.615385	4503.589744	4207.692308	4460.000000	4124.615385	4539.487179	4200.000000	4838.461538	4246.666667	4470.256410	4230.769231	4353.846154	4463.076923	4469.230769	1607.000000	2107.000000	34.457000	0.000000	0.000000	0.000000	0.000000	1	1	0	0	0	0	0	0	0	0	0	0	0	0	0	0	0	0	0	1	0.000	0.000
32.000000	4064.615385	4500.000000	4209.743590	4460.000000	4124.615385	4542.051282	4200.000000	4838.461538	4243.589744	4470.256410	4231.282051	4352.820513	4463.076923	4469.743590	1615.000000	2107.000000	34.465000	0.000000	0.000000	0.000000	0.000000	1	1	0	0	0	0	0	0	0	0	0	0	0	0	0	0	0	0	0	1	0.000	0.000
33.000000	4066.153846	4498.461538	4208.205128	4460.512821	4121.538462	4541.025641	4199.487179	4841.538462	4242.564103	4470.769231	4230.769231	4352.820513	4464.102564	4470.769231	1611.000000	2107.000000	34.473000	0.000000	0.000000	0.000000	0.000000	1	1	0	0	0	0	0	0	0	0	0	0	0	0	0	0	0	0	0	1	0.000	0.000
34.000000	4067.179487	4500.512821	4205.641026	4460.512821	4122.051282	4541.538462	4201.025641	4838.974359	4242.051282	4469.743590	4228.717949	4351.794872	4462.051282	4468.205128	1611.000000	2107.000000	34.481000	0.000000	0.000000	0.000000	0.000000	1	1	0	0	0	0	0	0	0	0	0	0	0	0	0	0	0	0	0	1	0.000	0.000
35.000000	4067.692308	4500.000000	4209.230769	4458.974359	4120.512821	4541.538462	4202.051282	4836.923077	4241.025641	4468.717949	4231.794872	4351.794872	4465.128205	4467.692308	1611.000000	2107.000000	34.489000	0.000000	0.000000	0.000000	0.000000	1	1	0	0	0	0	0	0	0	0	0	0	0	0	0	0	0	0	0	1	0.000	0.000
36.000000	4065.128205	4500.512821	4211.794872	4460.512821	4123.076923	4542.051282	4205.128205	4840.512821	4241.025641	4468.205128	4232.307692	4350.769231	4465.641026	4467.692308	1611.000000	2107.000000	34.497000	0.000000	0.000000	0.000000	0.000000	1	1	0	0	0	0	0	0	0	0	0	0	0	0	0	0	0	0	0	1	0.000	0.000
37.000000	4066.666667	4502.051282	4210.256410	4462.051282	4124.615385	4537.435897	4201.538462	4842.564103	4243.076923	4473.333333	4230.769231	4352.307692	4464.615385	4469.743590	1611.000000	2107.000000	34.505000	0.000000	0.000000	0.000000	0.000000	1	1	0	0	0	0	0	0	0	0	0	0	0	0	0	0	0	0	0	1	0.000	0.000
38.000000	4068.205128	4501.025641	4209.230769	4461.538462	4123.589744	4539.487179	4202.051282	4838.974359	4242.051282	4476.923077	4231.282051	4352.820513	4464.102564	4468.205128	1611.000000	2107.000000	34.513000	0.000000	0.000000	0.000000	0.000000	1	1	0	0	0	0	0	0	0	0	0	0	0	0	0	0	0	0	0	1	0.000	0.000
39.000000	4068.717949	4499.487179	4212.820513	4458.974359	4119.487179	4542.051282	4201.538462	4839.487179	4242.564103	4472.820513	4231.282051	4351.794872	4464.615385	4466.153846	1611.000000	2103.000000	34.521000	0.000000	0.000000	0.000000	0.000000	1	1	0	0	0	0	0	0	0	0	0	0	0	0	0	0	0	0	0	1	0.000	0.000
40.000000	4065.641026	4500.000000	4213.846154	4459.487179	4121.538462	4542.564103	4201.538462	4841.538462	4245.128205	4471.794872	4228.205128	4350.769231	4463.076923	4466.666667	1611.000000	2107.000000	34.528000	0.000000	0.000000	0.000000	0.000000	1	1	0	0	0	0	0	0	0	0	0	0	0	0	0	0	0	0	0	1	0.000	0.000
41.000000	4063.589744	4500.000000	4210.256410	4461.025641	4124.102564	4543.589744	4202.564103	4839.487179	4244.102564	4474.871795	4230.769231	4350.769231	4463.589744	4469.743590	1615.000000	2107.000000	34.536000	0.000000	0.000000	0.000000	0.000000	1	1	0	0	0	0	0	0	0	0	0	0	0	0	0	0	0	0	0	1	0.000	0.000
42.000000	4065.128205	4500.000000	4207.179487	4460.512821	4118.974359	4542.564103	4205.641026	4838.461538	4242.051282	4472.307692	4232.820513	4349.743590	4464.615385	4469.743590	1607.000000	2107.000000	34.544000	0.000000	0.000000	0.000000	0.000000	1	1	0	0	0	0	0	0	0	0	0	0	0	0	0	0	0	0	0	1	0.000	0.000
43.000000	4065.128205	4500.512821	4207.179487	4461.025641	4119.487179	4541.025641	4203.589744	4839.487179	4241.025641	4470.256410	4231.282051	4349.230769	4464.102564	4467.179487	1611.000000	2107.000000	34.552000	0.000000	0.000000	0.000000	0.000000	1	1	0	0	0	0	0	0	0	0	0	0	0	0	0	0	0	0	0	1	0.000	0.000
44.000000	4064.102564	4500.512821	4208.205128	4464.102564	4124.615385	4543.076923	4201.025641	4840.000000	4243.589744	4472.307692	4229.743590	4352.820513	4465.641026	4468.717949	1611.000000	2107.000000	34.560000	0.000000	0.000000	0.000000	0.000000	1	1	0	0	0	0	0	0	0	0	0	0	0	0	0	0	0	0	0	1	0.000	0.000
45.000000	4065.128205	4501.538462	4207.692308	4464.102564	4125.128205	4544.102564	4204.102564	4838.974359	4245.128205	4472.307692	4230.256410	4353.846154	4464.102564	4470.769231	1611.000000	2103.000000	34.568000	0.000000	0.000000	0.000000	0.000000	1	1	0	0	0	0	0	0	0	0	0	0	0	0	0	0	0	0	0	1	0.000	0.000
46.000000	4067.179487	4501.538462	4207.179487	4458.974359	4121.025641	4540.000000	4204.102564	4841.538462	4243.076923	4471.282051	4232.307692	4351.794872	4463.589744	4469.230769	1607.000000	2107.000000	34.576000	0.000000	0.000000	0.000000	0.000000	1	1	0	0	0	0	0	0	0	0	0	0	0	0	0	0	0	0	0	1	0.000	0.000
47.000000	4064.615385	4500.512821	4208.205128	4460.000000	4121.025641	4544.615385	4205.641026	4842.564103	4240.000000	4471.794872	4231.282051	4352.307692	4462.564103	4466.153846	1615.000000	2111.000000	34.584000	0.000000	0.000000	0.000000	0.000000	1	1	0	0	0	0	0	0	0	0	0	0	0	0	0	0	0	0	0	1	0.000	0.000
48.000000	4065.128205	4501.025641	4209.743590	4460.512821	4121.025641	4544.102564	4204.102564	4843.076923	4242.564103	4471.282051	4231.282051	4354.871795	4465.128205	4467.692308	1615.000000	2103.000000	34.591000	0.000000	0.000000	0.000000	0.000000	1	1	0	0	0	0	0	0	0	0	0	0	0	0	0	0	0	0	0	1	0.000	0.000
49.000000	4063.076923	4503.589744	4208.717949	4460.000000	4123.589744	4541.538462	4205.641026	4841.538462	4243.589744	4469.743590	4231.282051	4351.282051	4460.512821	4467.179487	1607.000000	2111.000000	34.599000	0.000000	0.000000	0.000000	0.000000	1	1	0	0	0	0	0	0	0	0	0	0	0	0	0	0	0	0	0	1	0.000	0.000
50.000000	4063.589744	4503.589744	4208.205128	4460.000000	4123.076923	4539.487179	4201.538462	4839.487179	4243.589744	4473.846154	4232.820513	4349.743590	4461.025641	4467.692308	1611.000000	2107.000000	34.607000	0.000000	0.000000	0.000000	0.000000	1	1	0	0	0	0	0	0	0	0	0	0	0	0	0	0	0	0	0	1	0.000	0.000
51.000000	4062.564103	4501.538462	4209.743590	4461.538462	4122.051282	4546.153846	4203.589744	4836.410256	4242.051282	4473.333333	4231.794872	4352.307692	4461.538462	4468.205128	1611.000000	2107.000000	34.615000	0.000000	0.000000	0.000000	0.000000	1	1	0	0	0	0	0	0	0	0	0	0	0	0	0	0	0	0	0	1	0.000	0.000
52.000000	4065.128205	4501.538462	4209.230769	4459.487179	4118.974359	4542.051282	4202.564103	4838.974359	4242.051282	4470.256410	4231.794872	4354.358974	4462.564103	4469.743590	1611.000000	2107.000000	34.623000	0.000000	0.000000	0.000000	0.000000	1	1	0	0	0	0	0	0	0	0	0	0	0	0	0	0	0	0	0	1	0.000	0.000
53.000000	4066.153846	4502.051282	4209.230769	4459.487179	4121.538462	4542.051282	4203.589744	4841.025641	4241.538462	4470.769231	4232.307692	4352.307692	4462.051282	4469.230769	1611.000000	2107.000000	34.631000	0.000000	0.000000	0.000000	0.000000	1	1	0	0	0	0	0	0	0	0	0	0	0	0	0	0	0	0	0	1	0.000	0.000
54.000000	4067.692308	4499.487179	4210.769231	4460.512821	4121.538462	4543.589744	4201.025641	4841.025641	4243.076923	4471.282051	4230.769231	4352.307692	4466.153846	4470.256410	1615.000000	2107.000000	34.639000	0.000000	0.000000	0.000000	0.000000	1	1	0	0	0	0	0	0	0	0	0	0	0	0	0	0	0	0	0	1	0.000	0.000
55.000000	4064.102564	4498.461538	4208.205128	4461.025641	4123.589744	4545.128205	4201.025641	4837.948718	4242.564103	4471.282051	4228.205128	4353.333333	4465.641026	4468.717949	1611.000000	2107.000000	34.647000	0.000000	0.000000	0.000000	0.000000	1	1	0	0	0	0	0	0	0	0	0	0	0	0	0	0	0	0	0	1	0.000	0.000
56.000000	4062.564103	4498.974359	4205.641026	4462.051282	4122.051282	4538.974359	4200.000000	4839.487179	4242.564103	4473.333333	4230.769231	4353.846154	4463.589744	4467.179487	1611.000000	2111.000000	34.655000	0.000000	0.000000	0.000000	0.000000	1	1	0	0	0	0	0	0	0	0	0	0	0	0	0	0	0	0	0	1	0.000	0.000
57.000000	4064.102564	4498.974359	4207.179487	4462.564103	4120.512821	4538.461538	4203.589744	4841.025641	4242.564103	4472.820513	4231.282051	4351.282051	4462.051282	4467.692308	1615.000000	2103.000000	34.662000	0.000000	0.000000	0.000000	0.000000	1	1	0	0	0	0	0	0	0	0	0	0	0	0	0	0	0	0	0	1	0.000	0.000
58.000000	4065.128205	4500.000000	4209.743590	4461.025641	4121.538462	4541.538462	4204.615385	4842.564103	4244.615385	4470.769231	4228.717949	4350.256410	4464.102564	4469.230769	1611.000000	2107.000000	34.670000	0.000000	0.000000	0.000000	0.000000	1	1	0	0	0	0	0	0	0	0	0	0	0	0	0	0	0	0	0	1	0.000	0.000
59.000000	4065.641026	4501.025641	4210.769231	4460.000000	4123.076923	4542.564103	4203.589744	4841.538462	4244.615385	4471.282051	4230.256410	4351.794872	4464.102564	4468.205128	1611.000000	2107.000000	34.678000	0.000000	0.000000	0.000000	0.000000	1	1	0	0	0	0	0	0	0	0	0	0	0	0	0	0	0	0	0	1	0.000	0.000
60.000000	4066.666667	4500.000000	4209.230769	4460.512821	4121.538462	4540.512821	4202.564103	4838.461538	4241.538462	4469.743590	4232.307692	4350.256410	4461.538462	4468.205128	1611.000000	2107.000000	34.686000	0.000000	0.000000	0.000000	0.000000	1	1	0	0	0	0	0	0	0	0	0	0	0	0	0	0	0	0	0	1	0.000	0.000
61.000000	4066.153846	4500.000000	4208.717949	4461.025641	4122.564103	4542.564103	4203.076923	4838.974359	4240.000000	4470.256410	4229.743590	4351.282051	4462.564103	4470.769231	1611.000000	2103.000000	34.694000	0.000000	0.000000	0.000000	0.000000	1	1	0	0	0	0	0	0	0	0	0	0	0	0	0	0	0	0	0	1	0.000	0.000
62.000000	4065.128205	4501.025641	4208.717949	4460.512821	4126.153846	4546.153846	4203.076923	4842.564103	4243.076923	4471.282051	4229.230769	4354.871795	4464.615385	4470.256410	1611.000000	2107.000000	34.702000	0.000000	0.000000	0.000000	0.000000	1	1	0	0	0	0	0	0	0	0	0	0	0	0	0	0	0	0	0	1	0.000	0.000
63.000000	4066.153846	4500.000000	4206.666667	4459.487179	4123.589744	4542.564103	4201.538462	4843.076923	4245.128205	4471.794872	4231.794872	4354.358974	4466.153846	4468.717949	1611.000000	2107.000000	34.710000	0.000000	0.000000	0.000000	0.000000	1	1	0	0	0	0	0	0	0	0	0	0	0	0	0	0	0	0	0	1	0.000	0.000
64.000000	4064.102564	4498.974359	4208.205128	4460.512821	4123.076923	4541.025641	4205.641026	4837.948718	4243.589744	4470.769231	4230.769231	4350.256410	4467.692308	4468.205128	1611.000000	2107.000000	34.718000	0.000000	0.000000	0.000000	0.000000	1	1	0	0	0	0	0	0	0	0	0	0	0	0	0	0	0	0	0	1	0.000	0.000
65.000000	4062.564103	4501.025641	4205.641026	4461.538462	4123.076923	4542.051282	4202.564103	4838.974359	4243.589744	4468.717949	4228.717949	4352.820513	4468.717949	4469.230769	1611.000000	2107.000000	34.724000	0.000000	0.000000	0.000000	0.000000	1	1	0	0	0	0	0	0	0	0	0	0	0	0	0	0	0	0	0	1	0.000	0.000
66.000000	4061.538462	4501.538462	4200.000000	4462.564103	4124.102564	4544.102564	4201.538462	4841.025641	4244.102564	4468.205128	4229.230769	4352.820513	4463.589744	4467.179487	1615.000000	2107.000000	34.733000	0.000000	0.000000	0.000000	0.000000	1	1	0	0	0	0	0	0	0	0	0	0	0	0	0	0	0	0	0	1	0.000	0.000
67.000000	4063.589744	4500.000000	4204.615385	4460.512821	4122.564103	4539.487179	4201.538462	4842.051282	4246.153846	4471.282051	4232.307692	4350.256410	4464.102564	4468.717949	1611.000000	2107.000000	34.741000	0.000000	0.000000	0.000000	0.000000	1	1	0	0	0	0	0	0	0	0	0	0	0	0	0	0	0	0	0	1	0.000	0.000
68.000000	4063.589744	4501.025641	4212.820513	4461.025641	4124.102564	4542.564103	4205.641026	4841.538462	4242.564103	4472.820513	4231.794872	4350.769231	4463.589744	4469.743590	1611.000000	2111.000000	34.749000	0.000000	0.000000	0.000000	0.000000	1	1	0	0	0	0	0	0	0	0	0	0	0	0	0	0	0	0	0	1	0.000	0.000
69.000000	4065.641026	4501.025641	4212.307692	4461.538462	4122.051282	4541.025641	4200.512821	4842.051282	4240.512821	4472.307692	4232.307692	4353.333333	4464.102564	4470.769231	1611.000000	2103.000000	34.757000	0.000000	0.000000	0.000000	0.000000	1	1	0	0	0	0	0	0	0	0	0	0	0	0	0	0	0	0	0	1	0.000	0.000
70.000000	4064.615385	4498.974359	4207.692308	4461.538462	4123.076923	4541.538462	4201.025641	4840.512821	4240.000000	4471.282051	4231.794872	4351.794872	4462.564103	4468.717949	1611.000000	2107.000000	34.765000	0.000000	0.000000	0.000000	0.000000	1	1	0	0	0	0	0	0	0	0	0	0	0	0	0	0	0	0	0	1	0.000	0.000
71.000000	4062.564103	4498.461538	4210.256410	4460.512821	4122.564103	4540.000000	4200.000000	4841.025641	4243.076923	4470.769231	4231.282051	4354.358974	4463.589744	4468.717949	1615.000000	2107.000000	34.773000	0.000000	0.000000	0.000000	0.000000	1	1	0	0	0	0	0	0	0	0	0	0	0	0	0	0	0	0	0	1	0.000	0.000
72.000000	4061.025641	4501.538462	4210.769231	4462.564103	4122.051282	4543.589744	4203.076923	4841.538462	4244.102564	4472.307692	4230.256410	4353.846154	4462.051282	4468.205128	1611.000000	2107.000000	34.781000	0.000000	0.000000	0.000000	0.000000	1	1	0	0	0	0	0	0	0	0	0	0	0	0	0	0	0	0	0	1	0.000	0.000
73.000000	4066.666667	4501.025641	4207.179487	4461.538462	4120.512821	4543.076923	4204.102564	4840.512821	4244.102564	4473.846154	4230.256410	4349.743590	4465.641026	4470.769231	1611.000000	2107.000000	34.789000	0.000000	0.000000	0.000000	0.000000	1	1	0	0	0	0	0	0	0	0	0	0	0	0	0	0	0	0	0	1	0.000	0.000
74.000000	4066.666667	4498.461538	4207.692308	4461.025641	4122.051282	4543.076923	4205.128205	4841.025641	4243.589744	4472.820513	4229.230769	4347.692308	4464.615385	4470.256410	1611.000000	2107.000000	34.796000	0.000000	0.000000	0.000000	0.000000	1	1	0	0	0	0	0	0	0	0	0	0	0	0	0	0	0	0	0	1	0.000	0.000
75.000000	4063.589744	4500.000000	4209.743590	4460.512821	4121.025641	4538.974359	4201.538462	4845.641026	4244.102564	4471.794872	4230.769231	4350.256410	4462.564103	4468.205128	1615.000000	2107.000000	34.804000	0.000000	0.000000	0.000000	0.000000	1	1	0	0	0	0	0	0	0	0	0	0	0	0	0	0	0	0	0	1	0.000	0.000
76.000000	4065.128205	4500.512821	4204.102564	4459.487179	4120.512821	4539.487179	4202.051282	4843.076923	4242.564103	4471.282051	4232.307692	4351.794872	4463.589744	4466.666667	1611.000000	2103.000000	34.812000	0.000000	0.000000	0.000000	0.000000	1	1	0	0	0	0	0	0	0	0	0	0	0	0	0	0	0	0	0	1	0.000	0.000
77.000000	4068.205128	4500.000000	4200.512821	4459.487179	4121.025641	4542.051282	4203.589744	4838.974359	4241.538462	4471.794872	4231.794872	4352.820513	4465.641026	4468.205128	1611.000000	2111.000000	34.820000	0.000000	0.000000	0.000000	0.000000	1	1	0	0	0	0	0	0	0	0	0	0	0	0	0	0	0	0	0	1	0.000	0.000
78.000000	4064.615385	4501.025641	4207.692308	4460.512821	4124.102564	4542.564103	4203.589744	4840.512821	4242.564103	4472.307692	4231.282051	4353.333333	4463.076923	4468.717949	1615.000000	2103.000000	34.828000	0.000000	0.000000	0.000000	0.000000	1	1	0	0	0	0	0	0	0	0	0	0	0	0	0	0	0	0	0	1	0.000	0.000
79.000000	4062.564103	4501.025641	4212.820513	4460.512821	4127.179487	4541.538462	4203.076923	4841.538462	4241.025641	4472.820513	4230.769231	4351.282051	4462.564103	4467.692308	1611.000000	2107.000000	34.836000	0.000000	0.000000	0.000000	0.000000	1	1	0	0	0	0	0	0	0	0	0	0	0	0	0	0	0	0	0	1	0.000	0.000
80.000000	4064.615385	4500.000000	4208.205128	4460.512821	4123.589744	4542.051282	4202.564103	4840.000000	4241.025641	4472.307692	4230.769231	4351.794872	4464.615385	4470.256410	1615.000000	2107.000000	34.844000	0.000000	0.000000	0.000000	0.000000	1	1	0	0	0	0	0	0	0	0	0	0	0	0	0	0	0	0	0	1	0.000	0.000
81.000000	4064.615385	4499.487179	4204.102564	4462.051282	4120.512821	4543.589744	4203.076923	4843.076923	4242.051282	4472.307692	4230.256410	4352.307692	4464.615385	4471.282051	1611.000000	2107.000000	34.852000	0.000000	0.000000	0.000000	0.000000	1	1	0	0	0	0	0	0	0	0	0	0	0	0	0	0	0	0	0	1	0.000	0.000
82.000000	4064.615385	4501.025641	4205.128205	4461.025641	4121.538462	4541.538462	4201.025641	4846.153846	4243.589744	4471.794872	4229.743590	4351.794872	4465.128205	4469.743590	1611.000000	2107.000000	34.859000	0.000000	0.000000	0.000000	0.000000	1	1	0	0	0	0	0	0	0	0	0	0	0	0	0	0	0	0	0	1	0.000	0.000
83.000000	4064.102564	4504.102564	4208.205128	4458.974359	4123.589744	4543.076923	4201.538462	4841.025641	4242.564103	4471.794872	4229.743590	4350.256410	4464.102564	4467.179487	1611.000000	2107.000000	34.867000	0.000000	0.000000	0.000000	0.000000	1	1	0	0	0	0	0	0	0	0	0	0	0	0	0	0	0	0	0	1	0.000	0.000
84.000000	4063.589744	4503.589744	4206.153846	4459.487179	4121.538462	4542.051282	4200.512821	4838.974359	4242.564103	4472.307692	4231.282051	4353.333333	4464.102564	4467.692308	1615.000000	2107.000000	34.875000	0.000000	0.000000	0.000000	0.000000	1	1	0	0	0	0	0	0	0	0	0	0	0	0	0	0	0	0	0	1	0.000	0.000
85.000000	4061.025641	4501.538462	4201.025641	4462.564103	4122.564103	4544.102564	4203.589744	4841.538462	4243.076923	4472.307692	4229.743590	4353.846154	4462.051282	4469.230769	1607.000000	2107.000000	34.883000	0.000000	0.000000	0.000000	0.000000	1	1	0	0	0	0	0	0	0	0	0	0	0	0	0	0	0	0	0	1	0.000	0.000
86.000000	4063.076923	4501.025641	4203.076923	4462.051282	4123.589744	4541.538462	4201.025641	4843.589744	4244.615385	4473.846154	4230.256410	4353.333333	4465.641026	4471.282051	1611.000000	2111.000000	34.891000	0.000000	0.000000	0.000000	0.000000	1	1	0	0	0	0	0	0	0	0	0	0	0	0	0	0	0	0	0	1	0.000	0.000
87.000000	4062.564103	4501.538462	4206.666667	4462.051282	4125.641026	4542.051282	4202.051282	4842.564103	4242.051282	4470.769231	4230.769231	4351.794872	4465.128205	4468.717949	1615.000000	2107.000000	34.899000	0.000000	0.000000	0.000000	0.000000	1	1	0	0	0	0	0	0	0	0	0	0	0	0	0	0	0	0	0	1	0.000	0.000
88.000000	4064.102564	4500.000000	4206.153846	4462.051282	4123.589744	4540.512821	4202.564103	4844.102564	4241.538462	4467.179487	4231.282051	4351.794872	4465.641026	4468.205128	1611.000000	2107.000000	34.907000	0.000000	0.000000	0.000000	0.000000	1	1	0	0	0	0	0	0	0	0	0	0	0	0	0	0	0	0	0	1	0.000	0.000
89.000000	4064.102564	4500.512821	4204.102564	4462.564103	4124.102564	4545.128205	4208.717949	4842.564103	4242.564103	4470.256410	4230.769231	4351.794872	4462.051282	4470.256410	1611.000000	2107.000000	34.915000	0.000000	0.000000	0.000000	0.000000	1	1	0	0	0	0	0	0	0	0	0	0	0	0	0	0	0	0	0	1	0.000	0.000
90.000000	4064.615385	4500.000000	4204.102564	4462.051282	4122.051282	4543.589744	4205.641026	4839.487179	4242.564103	4472.307692	4231.794872	4351.794872	4463.076923	4470.769231	1611.000000	2107.000000	34.922000	0.000000	0.000000	0.000000	0.000000	1	1	0	0	0	0	0	0	0	0	0	0	0	0	0	0	0	0	0	1	0.000	0.000
91.000000	4063.076923	4499.487179	4207.692308	4462.051282	4121.025641	4541.538462	4203.589744	4838.461538	4240.512821	4470.256410	4229.743590	4351.794872	4463.589744	4466.666667	1615.000000	2107.000000	34.930000	0.000000	0.000000	0.000000	0.000000	1	1	0	0	0	0	0	0	0	0	0	0	0	0	0	0	0	0	0	1	0.000	0.000
92.000000	4065.128205	4500.512821	4212.307692	4461.538462	4122.051282	4540.512821	4200.512821	4840.512821	4242.564103	4473.333333	4228.205128	4354.358974	4464.102564	4468.205128	1611.000000	2111.000000	34.938000	0.000000	0.000000	0.000000	0.000000	1	1	0	0	0	0	0	0	0	0	0	0	0	0	0	0	0	0	0	1	0.000	0.000
93.000000	4064.102564	4502.564103	4209.743590	4462.564103	4124.615385	4544.615385	4202.564103	4837.948718	4244.102564	4475.897436	4229.230769	4353.846154	4463.076923	4470.256410	1615.000000	2107.000000	34.946000	0.000000	0.000000	0.000000	0.000000	1	1	0	0	0	0	0	0	0	0	0	0	0	0	0	0	0	0	0	1	0.000	0.000
94.000000	4065.128205	4503.589744	4206.153846	4462.564103	4122.051282	4542.051282	4202.564103	4837.948718	4245.641026	4474.871795	4230.769231	4353.333333	4463.076923	4469.743590	1611.000000	2107.000000	34.954000	0.000000	0.000000	0.000000	0.000000	1	1	0	0	0	0	0	0	0	0	0	0	0	0	0	0	0	0	0	1	0.000	0.000
95.000000	4065.641026	4501.538462	4208.717949	4460.512821	4121.538462	4538.461538	4201.025641	4840.512821	4244.102564	4475.384615	4230.769231	4353.333333	4461.538462	4467.179487	1611.000000	2111.000000	34.962000	0.000000	0.000000	0.000000	0.000000	1	1	0	0	0	0	0	0	0	0	0	0	0	0	0	0	0	0	0	1	0.000	0.000
96.000000	4063.076923	4500.512821	4207.692308	4460.512821	4123.076923	4538.974359	4202.564103	4840.512821	4241.538462	4473.846154	4231.794872	4351.794872	4462.564103	4467.692308	1615.000000	2107.000000	34.971000	0.000000	0.000000	0.000000	0.000000	1	1	0	0	0	0	0	0	0	0	0	0	0	0	0	0	0	0	0	1	0.000	0.000
97.000000	4062.051282	4502.564103	4206.153846	4460.000000	4122.564103	4541.538462	4206.153846	4838.461538	4242.051282	4471.282051	4232.307692	4351.282051	4463.589744	4469.743590	1611.000000	2111.000000	34.979000	0.000000	0.000000	0.000000	0.000000	1	1	0	0	0	0	0	0	0	0	0	0	0	0	0	0	0	0	0	1	0.000	0.000
98.000000	4063.589744	4503.076923	4208.205128	4459.487179	4121.025641	4542.051282	4205.128205	4837.948718	4243.076923	4471.794872	4230.256410	4351.282051	4464.102564	4468.717949	1611.000000	2107.000000	34.986000	0.000000	0.000000	0.000000	0.000000	1	1	0	0	0	0	0	0	0	0	0	0	0	0	0	0	0	0	0	1	0.000	0.000
99.000000	4064.102564	4500.000000	4206.666667	4460.512821	4122.564103	4542.051282	4202.564103	4839.487179	4242.051282	4472.307692	4231.282051	4351.282051	4464.615385	4466.153846	1611.000000	2107.000000	34.994000	0.000000	0.000000	0.000000	0.000000	1	1	0	0	0	0	0	0	0	0	0	0	0	0	0	0	0	0	0	1	0.000	0.000
100.000000	4062.564103	4500.512821	4205.128205	4460.000000	4125.128205	4543.589744	4203.589744	4840.000000	4240.000000	4470.769231	4232.307692	4350.769231	4465.641026	4467.179487	1611.000000	2107.000000	35.002000	0.000000	0.000000	0.000000	0.000000	1	1	0	0	0	0	0	0	0	0	0	0	0	0	0	0	0	0	0	1	0.000	0.000
101.000000	4064.615385	4501.538462	4208.205128	4458.974359	4123.589744	4542.564103	4202.051282	4841.538462	4241.538462	4471.282051	4231.282051	4352.307692	4467.179487	4470.256410	1611.000000	2107.000000	35.010000	0.000000	0.000000	0.000000	0.000000	1	1	0	0	0	0	0	0	0	0	0	0	0	0	0	0	0	0	0	1	0.000	0.000
102.000000	4064.615385	4498.974359	4208.717949	4463.076923	4125.641026	4544.615385	4206.153846	4840.000000	4242.051282	4472.307692	4231.282051	4351.794872	4463.589744	4468.717949	1611.000000	2107.000000	35.018000	0.000000	0.000000	0.000000	0.000000	1	1	0	0	0	0	0	0	0	0	0	0	0	0	0	0	0	0	0	1	0.000	0.000
103.000000	4064.102564	4497.435897	4207.692308	4463.589744	4122.564103	4543.589744	4204.615385	4838.974359	4243.076923	4474.358974	4233.333333	4352.820513	4463.589744	4468.205128	1611.000000	2107.000000	35.026000	0.000000	0.000000	0.000000	0.000000	1	1	0	0	0	0	0	0	0	0	0	0	0	0	0	0	0	0	0	1	0.000	0.000
104.000000	4058.974359	4500.512821	4209.230769	4462.051282	4119.487179	4545.128205	4202.564103	4840.512821	4243.076923	4472.820513	4231.282051	4353.846154	4463.589744	4469.230769	1611.000000	2107.000000	35.034000	0.000000	0.000000	0.000000	0.000000	1	1	0	0	0	0	0	0	0	0	0	0	0	0	0	0	0	0	0	1	0.000	0.000
105.000000	4060.512821	4500.512821	4208.205128	4461.025641	4120.000000	4541.538462	4202.564103	4842.051282	4244.102564	4471.282051	4231.282051	4353.333333	4465.641026	4471.794872	1615.000000	2107.000000	35.042000	0.000000	0.000000	0.000000	0.000000	1	1	0	0	0	0	0	0	0	0	0	0	0	0	0	0	0	0	0	1	0.000	0.000
106.000000	4064.615385	4498.461538	4208.717949	4461.538462	4122.564103	4544.102564	4209.230769	4839.487179	4243.589744	4471.794872	4232.307692	4351.794872	4462.564103	4469.743590	1611.000000	2107.000000	35.050000	0.000000	0.000000	0.000000	0.000000	1	1	0	0	0	0	0	0	0	0	0	0	0	0	0	0	0	0	0	1	0.000	0.000
107.000000	4064.615385	4500.000000	4211.282051	4459.487179	4120.000000	4542.051282	4205.128205	4840.512821	4244.615385	4470.769231	4231.282051	4352.820513	4465.641026	4470.256410	1611.000000	2111.000000	35.057000	0.000000	0.000000	0.000000	0.000000	1	1	0	0	0	0	0	0	0	0	0	0	0	0	0	0	0	0	0	1	0.000	0.000
108.000000	4061.538462	4502.051282	4210.256410	4461.025641	4123.589744	4543.076923	4205.641026	4841.025641	4243.076923	4470.256410	4228.717949	4352.820513	4465.641026	4469.743590	1615.000000	2107.000000	35.065000	0.000000	0.000000	0.000000	0.000000	1	1	0	0	0	0	0	0	0	0	0	0	0	0	0	0	0	0	0	1	0.000	0.000
109.000000	4065.641026	4500.512821	4208.717949	4461.025641	4123.076923	4542.051282	4205.128205	4840.000000	4242.564103	4472.307692	4231.794872	4353.846154	4465.128205	4468.205128	1611.000000	2111.000000	35.073000	0.000000	0.000000	0.000000	0.000000	1	1	0	0	0	0	0	0	0	0	0	0	0	0	0	0	0	0	0	1	0.000	0.000
110.000000	4066.153846	4498.461538	4210.256410	4461.538462	4122.564103	4545.128205	4203.589744	4838.974359	4244.615385	4472.820513	4231.794872	4352.820513	4462.564103	4466.153846	1611.000000	2107.000000	35.081000	0.000000	0.000000	0.000000	0.000000	1	1	0	0	0	0	0	0	0	0	0	0	0	0	0	0	0	0	0	1	0.000	0.000
111.000000	4067.179487	4499.487179	4215.384615	4461.025641	4122.564103	4542.051282	4198.974359	4842.564103	4244.615385	4472.307692	4226.153846	4353.333333	4462.051282	4468.717949	1611.000000	2111.000000	35.089000	0.000000	0.000000	0.000000	0.000000	1	1	0	0	0	0	0	0	0	0	0	0	0	0	0	0	0	0	0	1	0.000	0.000
112.000000	4065.128205	4501.538462	4215.384615	4460.000000	4124.102564	4541.538462	4203.076923	4842.564103	4240.512821	4471.282051	4226.666667	4353.333333	4464.102564	4470.256410	1611.000000	2107.000000	35.097000	0.000000	0.000000	0.000000	0.000000	1	1	0	0	0	0	0	0	0	0	0	0	0	0	0	0	0	0	0	1	0.000	0.000
113.000000	4063.589744	4500.512821	4207.692308	4458.461538	4123.589744	4541.025641	4204.102564	4842.051282	4242.051282	4472.307692	4232.307692	4353.846154	4467.179487	4470.256410	1611.000000	2107.000000	35.105000	0.000000	0.000000	0.000000	0.000000	1	1	0	0	0	0	0	0	0	0	0	0	0	0	0	0	0	0	0	1	0.000	0.000
114.000000	4063.076923	4500.000000	4205.128205	4460.512821	4124.102564	4540.512821	4202.051282	4842.564103	4246.153846	4473.846154	4231.794872	4354.358974	4466.153846	4468.717949	1615.000000	2107.000000	35.113000	0.000000	0.000000	0.000000	0.000000	1	1	0	0	0	0	0	0	0	0	0	0	0	0	0	0	0	0	0	1	0.000	0.000
115.000000	4065.128205	4502.564103	4208.717949	4462.051282	4121.025641	4542.051282	4202.564103	4840.000000	4245.128205	4472.307692	4229.743590	4352.820513	4463.076923	4468.717949	1615.000000	2107.000000	35.120000	0.000000	0.000000	0.000000	0.000000	1	1	0	0	0	0	0	0	0	0	0	0	0	0	0	0	0	0	0	1	0.000	0.000
116.000000	4066.153846	4502.051282	4207.692308	4462.564103	4118.974359	4543.589744	4205.641026	4838.461538	4245.128205	4469.743590	4231.794872	4352.307692	4462.051282	4467.692308	1611.000000	2111.000000	35.128000	0.000000	0.000000	0.000000	0.000000	1	1	0	0	0	0	0	0	0	0	0	0	0	0	0	0	0	0	0	1	0.000	0.000
117.000000	4065.641026	4499.487179	4204.102564	4462.564103	4122.051282	4541.538462	4206.153846	4842.051282	4247.179487	4471.282051	4231.794872	4353.333333	4462.051282	4467.179487	1615.000000	2107.000000	35.136000	0.000000	0.000000	0.000000	0.000000	1	1	0	0	0	0	0	0	0	0	0	0	0	0	0	0	0	0	0	1	0.000	0.000
118.000000	4063.589744	4501.538462	4207.692308	4461.025641	4122.051282	4538.974359	4202.564103	4843.589744	4244.615385	4472.820513	4230.769231	4353.333333	4463.076923	4467.692308	1611.000000	2107.000000	35.144000	0.000000	0.000000	0.000000	0.000000	1	1	0	0	0	0	0	0	0	0	0	0	0	0	0	0	0	0	0	1	0.000	0.000
119.000000	4062.051282	4499.487179	4210.769231	4460.000000	4121.538462	4545.641026	4204.615385	4839.487179	4240.512821	4471.794872	4231.282051	4350.769231	4465.128205	4467.692308	1611.000000	2111.000000	35.152000	0.000000	0.000000	0.000000	0.000000	1	1	0	0	0	0	0	0	0	0	0	0	0	0	0	0	0	0	0	1	0.000	0.000
120.000000	4066.153846	4498.974359	4209.230769	4461.538462	4121.025641	4546.153846	4202.564103	4840.512821	4242.564103	4471.282051	4231.282051	4352.307692	4467.692308	4468.717949	1611.000000	2107.000000	35.160000	0.000000	0.000000	0.000000	0.000000	1	1	0	0	0	0	0	0	0	0	0	0	0	0	0	0	0	0	0	1	0.000	0.000
121.000000	4065.128205	4504.102564	4207.692308	4463.076923	4122.564103	4543.589744	4203.589744	4841.025641	4244.615385	4471.282051	4230.256410	4352.307692	4465.128205	4468.205128	1611.000000	2107.000000	35.168000	0.000000	0.000000	0.000000	0.000000	1	1	0	0	0	0	0	0	0	0	0	0	0	0	0	0	0	0	0	1	0.000	0.000
122.000000	4063.589744	4505.128205	4209.230769	4460.000000	4123.076923	4540.512821	4203.076923	4841.025641	4243.076923	4471.794872	4232.820513	4352.307692	4466.666667	4468.717949	1607.000000	2111.000000	35.176000	0.000000	0.000000	0.000000	0.000000	1	1	0	0	0	0	0	0	0	0	0	0	0	0	0	0	0	0	0	1	0.000	0.000
123.000000	4062.564103	4501.025641	4210.769231	4460.000000	4125.641026	4544.615385	4206.153846	4840.512821	4241.538462	4472.820513	4233.333333	4354.358974	4466.666667	4468.205128	1619.000000	2111.000000	35.184000	0.000000	0.000000	0.000000	0.000000	1	1	0	0	0	0	0	0	0	0	0	0	0	0	0	0	0	0	0	1	0.000	0.000
124.000000	4064.102564	4500.512821	4210.256410	4460.512821	4122.051282	4542.051282	4203.589744	4842.564103	4244.615385	4475.384615	4231.282051	4355.897436	4467.179487	4469.743590	1611.000000	2107.000000	35.191000	0.000000	0.000000	0.000000	0.000000	1	1	0	0	0	0	0	0	0	0	0	0	0	0	0	0	0	0	0	1	0.000	0.000
125.000000	4062.564103	4500.000000	4207.692308	4461.025641	4121.025641	4543.589744	4204.615385	4843.589744	4246.666667	4474.358974	4229.743590	4353.333333	4463.589744	4466.666667	1611.000000	2115.000000	35.199000	0.000000	0.000000	0.000000	0.000000	1	1	0	0	0	0	0	0	0	0	0	0	0	0	0	0	0	0	0	1	0.000	0.000
126.000000	4066.153846	4497.948718	4208.717949	4462.564103	4122.051282	4541.538462	4203.589744	4843.076923	4245.128205	4473.846154	4231.794872	4351.794872	4464.615385	4468.205128	1615.000000	2107.000000	35.207000	0.000000	0.000000	0.000000	0.000000	1	1	0	0	0	0	0	0	0	0	0	0	0	0	0	0	0	0	0	1	0.000	0.000
127.000000	4064.615385	4503.589744	4212.307692	4462.051282	4123.076923	4542.564103	4205.641026	4839.487179	4240.000000	4472.820513	4231.282051	4351.794872	4463.076923	4470.256410	1611.000000	2107.000000	35.215000	0.000000	0.000000	0.000000	0.000000	1	1	0	0	0	0	0	0	0	0	0	0	0	0	0	0	0	0	0	1	0.000	0.000
128.000000	4064.102564	4507.179487	4211.794872	4460.000000	4121.538462	4542.051282	4202.564103	4840.000000	4241.025641	4469.230769	4230.256410	4354.358974	4463.589744	4469.743590	1615.000000	2107.000000	35.223000	0.000000	0.000000	0.000000	0.000000	1	1	0	0	0	0	0	0	0	0	0	0	0	0	0	0	0	0	0	1	0.000	0.000
0.000000	4066.153846	4502.564103	4206.666667	4462.051282	4124.102564	4544.615385	4205.128205	4842.051282	4241.538462	4468.205128	4229.743590	4354.358974	4463.589744	4468.205128	1611.000000	2111.000000	35.231000	0.000000	0.000000	0.000000	0.000000	1	1	0	0	0	0	0	0	0	0	0	0	0	0	0	0	0	0	0	1	0.000	0.000
1.000000	4067.692308	4499.487179	4206.666667	4463.076923	4122.051282	4538.974359	4204.615385	4844.102564	4240.512821	4471.282051	4231.794872	4352.307692	4464.102564	4469.743590	1615.000000	2107.000000	35.239000	0.000000	0.000000	0.000000	0.000000	1	1	0	0	0	0	0	0	0	0	0	0	0	0	0	0	0	0	0	1	0.000	0.000
2.000000	4064.615385	4497.948718	4208.205128	4462.051282	4119.487179	4538.974359	4204.102564	4844.615385	4241.538462	4473.333333	4230.769231	4351.282051	4464.102564	4467.692308	1611.000000	2111.000000	35.247000	0.000000	0.000000	0.000000	0.000000	1	1	0	0	0	0	0	0	0	0	0	0	0	0	0	0	0	0	0	1	0.000	0.000
3.000000	4063.589744	4495.384615	4208.205128	4460.000000	4120.000000	4542.051282	4202.051282	4843.076923	4246.666667	4470.769231	4230.256410	4354.358974	4466.666667	4468.205128	1615.000000	2111.000000	35.254000	0.000000	0.000000	0.000000	0.000000	1	1	0	0	0	0	0	0	0	0	0	0	0	0	0	0	0	0	0	1	0.000	0.000
4.000000	4064.102564	4498.461538	4209.743590	4460.000000	4121.538462	4544.615385	4203.076923	4841.025641	4247.179487	4469.230769	4230.769231	4355.384615	4466.153846	4470.769231	1611.000000	2103.000000	35.262000	0.000000	0.000000	0.000000	0.000000	1	1	0	0	0	0	0	0	0	0	0	0	0	0	0	0	0	0	0	1	0.000	0.000
5.000000	4064.102564	4503.076923	4209.743590	4461.538462	4120.512821	4544.102564	4203.076923	4839.487179	4243.076923	4470.769231	4231.282051	4352.307692	4464.615385	4468.717949	1611.000000	2111.000000	35.270000	0.000000	0.000000	0.000000	0.000000	1	1	0	0	0	0	0	0	0	0	0	0	0	0	0	0	0	0	0	1	0.000	0.000
6.000000	4064.615385	4500.512821	4208.205128	4461.025641	4119.487179	4542.051282	4201.025641	4839.487179	4244.102564	4473.333333	4231.794872	4352.307692	4465.128205	4467.179487	1615.000000	2107.000000	35.278000	0.000000	0.000000	0.000000	0.000000	1	1	0	0	0	0	0	0	0	0	0	0	0	0	0	0	0	0	0	1	0.000	0.000
7.000000	4065.641026	4497.948718	4211.282051	4459.487179	4121.025641	4542.051282	4201.538462	4840.000000	4245.128205	4472.307692	4232.307692	4354.358974	4465.128205	4468.205128	1611.000000	2107.000000	35.286000	0.000000	0.000000	0.000000	0.000000	1	1	0	0	0	0	0	0	0	0	0	0	0	0	0	0	0	0	0	1	0.000	0.000
8.000000	4067.179487	4501.025641	4214.358974	4461.025641	4124.102564	4542.051282	4203.076923	4840.000000	4241.538462	4471.282051	4232.307692	4354.358974	4465.641026	4468.205128	1615.000000	2107.000000	35.294000	0.000000	0.000000	0.000000	0.000000	1	1	0	0	0	0	0	0	0	0	0	0	0	0	0	0	0	0	0	1	0.000	0.000
9.000000	4067.179487	4503.589744	4211.282051	4463.589744	4125.641026	4543.589744	4205.641026	4838.461538	4238.461538	4471.794872	4230.256410	4351.794872	4467.692308	4466.666667	1611.000000	2111.000000	35.302000	0.000000	0.000000	0.000000	0.000000	1	1	0	0	0	0	0	0	0	0	0	0	0	0	0	0	0	0	0	1	0.000	0.000
10.000000	4067.179487	4500.000000	4207.179487	4462.564103	4120.000000	4540.512821	4202.564103	4840.000000	4242.564103	4471.794872	4231.282051	4352.820513	4467.179487	4469.230769	1611.000000	2107.000000	35.310000	0.000000	0.000000	0.000000	0.000000	1	1	0	0	0	0	0	0	0	0	0	0	0	0	0	0	0	0	0	1	0.000	0.000
11.000000	4064.615385	4497.435897	4209.230769	4463.589744	4121.025641	4542.051282	4203.589744	4840.000000	4245.128205	4471.794872	4232.820513	4352.820513	4461.025641	4470.256410	1611.000000	2111.000000	35.318000	0.000000	0.000000	0.000000	0.000000	1	1	0	0	0	0	0	0	0	0	0	0	0	0	0	0	0	0	0	1	0.000	0.000
12.000000	4067.692308	4500.512821	4212.820513	4463.076923	4123.589744	4541.025641	4201.538462	4840.512821	4243.589744	4471.794872	4231.794872	4351.282051	4463.589744	4471.282051	1615.000000	2111.000000	35.325000	0.000000	0.000000	0.000000	0.000000	1	1	0	0	0	0	0	0	0	0	0	0	0	0	0	0	0	0	0	1	0.000	0.000
13.000000	4067.692308	4503.076923	4207.692308	4462.564103	4122.564103	4543.589744	4204.615385	4838.974359	4241.538462	4469.743590	4228.205128	4351.282051	4464.615385	4468.717949	1615.000000	2107.000000	35.333000	0.000000	0.000000	0.000000	0.000000	1	1	0	0	0	0	0	0	0	0	0	0	0	0	0	0	0	0	0	1	0.000	0.000
14.000000	4066.153846	4501.538462	4203.589744	4461.538462	4117.948718	4541.025641	4204.102564	4841.025641	4243.589744	4469.743590	4229.743590	4355.384615	4466.153846	4468.205128	1611.000000	2107.000000	35.341000	0.000000	0.000000	0.000000	0.000000	1	1	0	0	0	0	0	0	0	0	0	0	0	0	0	0	0	0	0	1	0.000	0.000
15.000000	4063.589744	4501.025641	4207.692308	4461.025641	4122.051282	4542.564103	4204.102564	4844.102564	4243.076923	4472.820513	4230.769231	4353.846154	4464.102564	4467.179487	1615.000000	2111.000000	35.349000	0.000000	0.000000	0.000000	0.000000	1	1	0	0	0	0	0	0	0	0	0	0	0	0	0	0	0	0	0	1	0.000	0.000
16.000000	4067.179487	4500.512821	4209.230769	4461.025641	4122.564103	4542.051282	4200.000000	4844.615385	4245.128205	4472.307692	4231.282051	4352.820513	4466.666667	4467.692308	1615.000000	2107.000000	35.357000	0.000000	0.000000	0.000000	0.000000	1	1	0	0	0	0	0	0	0	0	0	0	0	0	0	0	0	0	0	1	0.000	0.000
17.000000	4067.179487	4501.025641	4206.153846	4462.564103	4123.076923	4541.025641	4203.076923	4840.000000	4245.641026	4470.256410	4231.794872	4352.307692	4464.615385	4467.179487	1611.000000	2111.000000	35.365000	0.000000	0.000000	0.000000	0.000000	1	1	0	0	0	0	0	0	0	0	0	0	0	0	0	0	0	0	0	1	0.000	0.000
18.000000	4065.128205	4501.538462	4208.717949	4461.025641	4123.589744	4538.461538	4202.051282	4841.025641	4244.102564	4473.333333	4232.820513	4353.333333	4464.102564	4467.179487	1619.000000	2107.000000	35.373000	0.000000	0.000000	0.000000	0.000000	1	1	0	0	0	0	0	0	0	0	0	0	0	0	0	0	0	0	0	1	0.000	0.000
19.000000	4062.564103	4501.025641	4211.794872	4458.974359	4123.589744	4543.589744	4203.076923	4842.564103	4242.564103	4475.384615	4231.282051	4354.358974	4464.615385	4467.692308	1611.000000	2107.000000	35.381000	0.000000	0.000000	0.000000	0.000000	1	1	0	0	0	0	0	0	0	0	0	0	0	0	0	0	0	0	0	1	0.000	0.000
20.000000	4064.102564	4498.974359	4208.717949	4459.487179	4122.564103	4542.051282	4202.051282	4840.000000	4243.076923	4472.820513	4231.794872	4353.846154	4465.128205	4471.282051	1615.000000	2111.000000	35.388000	0.000000	0.000000	0.000000	0.000000	1	1	0	0	0	0	0	0	0	0	0	0	0	0	0	0	0	0	0	1	0.000	0.000
21.000000	4063.589744	4501.025641	4208.205128	4462.564103	4123.589744	4540.512821	4203.589744	4838.461538	4241.538462	4472.307692	4233.333333	4350.256410	4463.076923	4470.769231	1615.000000	2111.000000	35.396000	0.000000	0.000000	0.000000	0.000000	1	1	0	0	0	0	0	0	0	0	0	0	0	0	0	0	0	0	0	1	0.000	0.000
22.000000	4063.589744	4503.589744	4210.256410	4462.051282	4122.564103	4543.589744	4206.153846	4840.512821	4240.512821	4473.846154	4232.307692	4350.256410	4462.564103	4468.205128	1615.000000	2107.000000	35.404000	0.000000	0.000000	0.000000	0.000000	1	1	0	0	0	0	0	0	0	0	0	0	0	0	0	0	0	0	0	1	0.000	0.000
23.000000	4065.641026	4502.564103	4209.230769	4460.000000	4123.589744	4542.564103	4206.153846	4841.025641	4243.076923	4471.794872	4231.794872	4352.820513	4463.589744	4470.256410	1611.000000	2107.000000	35.412000	0.000000	0.000000	0.000000	0.000000	1	1	0	0	0	0	0	0	0	0	0	0	0	0	0	0	0	0	0	1	0.000	0.000
24.000000	4066.666667	4501.538462	4208.205128	4459.487179	4126.153846	4538.461538	4200.512821	4840.000000	4246.153846	4469.743590	4231.794872	4351.794872	4463.589744	4473.333333	1615.000000	2111.000000	35.420000	0.000000	0.000000	0.000000	0.000000	1	1	0	0	0	0	0	0	0	0	0	0	0	0	0	0	0	0	0	1	0.000	0.000
25.000000	4066.153846	4502.564103	4208.205128	4459.487179	4124.102564	4541.538462	4198.974359	4840.000000	4245.641026	4470.769231	4232.307692	4351.794872	4465.641026	4470.256410	1615.000000	2107.000000	35.428000	0.000000	0.000000	0.000000	0.000000	1	1	0	0	0	0	0	0	0	0	0	0	0	0	0	0	0	0	0	1	0.000	0.000
26.000000	4064.102564	4502.051282	4209.230769	4461.025641	4121.538462	4544.615385	4204.615385	4838.974359	4242.051282	4472.307692	4231.282051	4351.794872	4465.128205	4468.205128	1611.000000	2111.000000	35.436000	0.000000	0.000000	0.000000	0.000000	1	1	0	0	0	0	0	0	0	0	0	0	0	0	0	0	0	0	0	1	0.000	0.000
27.000000	4063.589744	4500.000000	4211.282051	4462.051282	4122.051282	4538.461538	4203.076923	4840.000000	4241.538462	4472.820513	4231.282051	4350.769231	4464.102564	4470.769231	1615.000000	2107.000000	35.444000	0.000000	0.000000	0.000000	0.000000	1	1	0	0	0	0	0	0	0	0	0	0	0	0	0	0	0	0	0	1	0.000	0.000
28.000000	4063.589744	4500.000000	4210.769231	4461.538462	4123.076923	4542.051282	4201.538462	4842.051282	4242.051282	4472.820513	4231.282051	4352.307692	4463.589744	4469.743590	1611.000000	2111.000000	35.451000	0.000000	0.000000	0.000000	0.000000	1	1	0	0	0	0	0	0	0	0	0	0	0	0	0	0	0	0	0	1	0.000	0.000
29.000000	4064.102564	4501.025641	4208.717949	4458.974359	4121.025641	4546.666667	4203.076923	4843.589744	4244.615385	4474.358974	4231.794872	4354.871795	4465.128205	4468.717949	1615.000000	2111.000000	35.459000	0.000000	0.000000	0.000000	0.000000	1	1	0	0	0	0	0	0	0	0	0	0	0	0	0	0	0	0	0	1	0.000	0.000
30.000000	4064.615385	4501.025641	4207.179487	4460.000000	4125.128205	4546.153846	4206.153846	4840.512821	4244.102564	4472.307692	4231.282051	4354.358974	4463.076923	4467.692308	1615.000000	2111.000000	35.467000	0.000000	0.000000	0.000000	0.000000	1	1	0	0	0	0	0	0	0	0	0	0	0	0	0	0	0	0	0	1	0.000	0.000
31.000000	4068.717949	4500.000000	4205.641026	4461.538462	4123.589744	4540.512821	4200.000000	4841.538462	4242.564103	4467.692308	4232.820513	4354.358974	4467.179487	4468.717949	1615.000000	2107.000000	35.475000	0.000000	0.000000	0.000000	0.000000	1	1	0	0	0	0	0	0	0	0	0	0	0	0	0	0	0	0	0	1	0.000	0.000
32.000000	4065.128205	4503.076923	4208.717949	4460.000000	4123.076923	4544.102564	4201.025641	4843.076923	4240.512821	4469.743590	4232.307692	4352.307692	4466.666667	4468.205128	1611.000000	2111.000000	35.483000	0.000000	0.000000	0.000000	0.000000	1	1	0	0	0	0	0	0	0	0	0	0	0	0	0	0	0	0	0	1	0.000	0.000
33.000000	4064.102564	4505.128205	4208.717949	4458.974359	4122.564103	4542.051282	4201.538462	4842.564103	4243.589744	4471.794872	4230.256410	4353.846154	4463.076923	4468.717949	1615.000000	2111.000000	35.491000	0.000000	0.000000	0.000000	0.000000	1	1	0	0	0	0	0	0	0	0	0	0	0	0	0	0	0	0	0	1	0.000	0.000
34.000000	4065.128205	4501.538462	4202.051282	4462.564103	4124.615385	4543.076923	4203.589744	4839.487179	4245.128205	4470.769231	4227.692308	4355.897436	4461.538462	4467.692308	1615.000000	2103.000000	35.499000	0.000000	0.000000	0.000000	0.000000	1	1	0	0	0	0	0	0	0	0	0	0	0	0	0	0	0	0	0	1	0.000	0.000
35.000000	4065.641026	4497.948718	4202.051282	4462.564103	4121.538462	4540.512821	4202.051282	4840.000000	4244.102564	4472.307692	4229.230769	4355.897436	4467.692308	4468.717949	1611.000000	2115.000000	35.507000	0.000000	0.000000	0.000000	0.000000	1	1	0	0	0	0	0	0	0	0	0	0	0	0	0	0	0	0	0	1	0.000	0.000
36.000000	4064.615385	4498.974359	4209.230769	4461.025641	4122.051282	4541.538462	4203.589744	4839.487179	4242.051282	4473.333333	4229.230769	4351.794872	4466.666667	4468.717949	1615.000000	2107.000000	35.515000	0.000000	0.000000	0.000000	0.000000	1	1	0	0	0	0	0	0	0	0	0	0	0	0	0	0	0	0	0	1	0.000	0.000
37.000000	4068.205128	4501.538462	4208.717949	4461.025641	4122.564103	4541.538462	4200.512821	4840.000000	4243.589744	4470.256410	4227.692308	4351.794872	4463.589744	4469.743590	1611.000000	2111.000000	35.522000	0.000000	0.000000	0.000000	0.000000	1	1	0	0	0	0	0	0	0	0	0	0	0	0	0	0	0	0	0	1	0.000	0.000
38.000000	4065.128205	4502.051282	4208.717949	4461.538462	4124.102564	4545.128205	4202.564103	4841.025641	4244.102564	4470.769231	4228.717949	4352.307692	4463.076923	4468.717949	1611.000000	2111.000000	35.530000	0.000000	0.000000	0.000000	0.000000	1	1	0	0	0	0	0	0	0	0	0	0	0	0	0	0	0	0	0	1	0.000	0.000
39.000000	4065.128205	4499.487179	4212.820513	4460.512821	4123.589744	4543.076923	4202.051282	4840.000000	4242.564103	4472.820513	4231.794872	4355.384615	4466.153846	4467.692308	1615.000000	2111.000000	35.538000	0.000000	0.000000	0.000000	0.000000	1	1	0	0	0	0	0	0	0	0	0	0	0	0	0	0	0	0	0	1	0.000	0.000
40.000000	4067.179487	4498.461538	4202.051282	4461.025641	4122.564103	4540.512821	4201.025641	4836.923077	4241.025641	4471.282051	4230.769231	4355.384615	4464.615385	4466.666667	1615.000000	2107.000000	35.546000	0.000000	0.000000	0.000000	0.000000	1	1	0	0	0	0	0	0	0	0	0	0	0	0	0	0	0	0	0	1	0.000	0.000
41.000000	4064.102564	4501.538462	4194.871795	4461.538462	4122.564103	4538.461538	4200.512821	4838.974359	4241.538462	4471.794872	4230.256410	4351.282051	4464.615385	4467.692308	1611.000000	2111.000000	35.554000	0.000000	0.000000	0.000000	0.000000	1	1	0	0	0	0	0	0	0	0	0	0	0	0	0	0	0	0	0	1	0.000	0.000
42.000000	4060.512821	4502.051282	4207.692308	4460.000000	4123.076923	4539.487179	4203.589744	4842.564103	4242.564103	4471.794872	4232.307692	4351.794872	4467.692308	4468.717949	1619.000000	2111.000000	35.562000	0.000000	0.000000	0.000000	0.000000	1	1	0	0	0	0	0	0	0	0	0	0	0	0	0	0	0	0	0	1	0.000	0.000
43.000000	4062.564103	4501.025641	4213.333333	4461.538462	4123.589744	4543.589744	4204.102564	4841.025641	4242.564103	4469.230769	4230.769231	4354.358974	4466.153846	4467.692308	1615.000000	2107.000000	35.570000	0.000000	0.000000	0.000000	0.000000	1	1	0	0	0	0	0	0	0	0	0	0	0	0	0	0	0	0	0	1	0.000	0.000
44.000000	4063.589744	4501.538462	4204.615385	4461.538462	4123.589744	4542.564103	4202.051282	4839.487179	4244.615385	4470.769231	4230.769231	4353.846154	4463.076923	4467.179487	1615.000000	2115.000000	35.578000	0.000000	0.000000	0.000000	0.000000	1	1	0	0	0	0	0	0	0	0	0	0	0	0	0	0	0	0	0	1	0.000	0.000
45.000000	4064.102564	4503.076923	4202.564103	4460.512821	4124.615385	4541.538462	4203.589744	4840.000000	4245.128205	4471.282051	4233.333333	4352.307692	4463.076923	4467.179487	1615.000000	2107.000000	35.585000	0.000000	0.000000	0.000000	0.000000	1	1	0	0	0	0	0	0	0	0	0	0	0	0	0	0	0	0	0	1	0.000	0.000
46.000000	4066.666667	4502.051282	4208.205128	4462.051282	4123.589744	4543.589744	4203.589744	4841.025641	4242.051282	4469.230769	4232.820513	4353.846154	4465.128205	4470.256410	1611.000000	2111.000000	35.593000	0.000000	0.000000	0.000000	0.000000	1	1	0	0	0	0	0	0	0	0	0	0	0	0	0	0	0	0	0	1	0.000	0.000
47.000000	4064.102564	4499.487179	4208.717949	4463.589744	4121.538462	4547.179487	4205.641026	4841.025641	4241.538462	4471.794872	4231.282051	4351.794872	4462.051282	4469.230769	1615.000000	2111.000000	35.601000	0.000000	0.000000	0.000000	0.000000	1	1	0	0	0	0	0	0	0	0	0	0	0	0	0	0	0	0	0	1	0.000	0.000
48.000000	4062.051282	4500.000000	4207.692308	4460.000000	4116.923077	4541.538462	4201.538462	4843.076923	4246.153846	4473.333333	4232.820513	4352.307692	4462.051282	4468.205128	1611.000000	2111.000000	35.609000	0.000000	0.000000	0.000000	0.000000	1	1	0	0	0	0	0	0	0	0	0	0	0	0	0	0	0	0	0	1	0.000	0.000
49.000000	4061.025641	4502.051282	4207.692308	4461.025641	4120.512821	4542.051282	4202.051282	4840.512821	4243.076923	4471.282051	4231.282051	4353.846154	4463.589744	4471.282051	1615.000000	2107.000000	35.617000	0.000000	0.000000	0.000000	0.000000	1	1	0	0	0	0	0	0	0	0	0	0	0	0	0	0	0	0	0	1	0.000	0.000
50.000000	4064.102564	4502.564103	4209.230769	4464.102564	4122.564103	4541.538462	4201.538462	4840.000000	4241.025641	4474.358974	4230.256410	4354.358974	4468.205128	4473.846154	1615.000000	2111.000000	35.625000	0.000000	0.000000	0.000000	0.000000	1	1	0	0	0	0	0	0	0	0	0	0	0	0	0	0	0	0	0	1	0.000	0.000
51.000000	4064.102564	4503.076923	4209.743590	4462.564103	4122.051282	4543.076923	4205.641026	4842.051282	4243.076923	4475.897436	4229.743590	4354.871795	4466.153846	4468.717949	1611.000000	2107.000000	35.633000	0.000000	0.000000	0.000000	0.000000	1	1	0	0	0	0	0	0	0	0	0	0	0	0	0	0	0	0	0	1	0.000	0.000
52.000000	4064.615385	4502.051282	4208.717949	4458.461538	4120.512821	4541.025641	4204.615385	4842.564103	4243.589744	4472.820513	4230.256410	4356.410256	4464.615385	4469.743590	1615.000000	2111.000000	35.641000	0.000000	0.000000	0.000000	0.000000	1	1	0	0	0	0	0	0	0	0	0	0	0	0	0	0	0	0	0	1	0.000	0.000
53.000000	4064.102564	4502.051282	4209.743590	4461.025641	4124.615385	4544.102564	4206.666667	4840.512821	4242.051282	4472.307692	4228.717949	4352.820513	4462.564103	4470.256410	1615.000000	2111.000000	35.649000	0.000000	0.000000	0.000000	0.000000	1	1	0	0	0	0	0	0	0	0	0	0	0	0	0	0	0	0	0	1	0.000	0.000
54.000000	4066.666667	4502.564103	4210.256410	4461.538462	4123.076923	4542.051282	4202.564103	4843.076923	4245.128205	4476.410256	4229.230769	4351.282051	4464.615385	4467.692308	1615.000000	2111.000000	35.656000	0.000000	0.000000	0.000000	0.000000	1	1	0	0	0	0	0	0	0	0	0	0	0	0	0	0	0	0	0	1	0.000	0.000
55.000000	4065.128205	4500.512821	4208.717949	4459.487179	4124.102564	4542.564103	4202.564103	4841.538462	4244.102564	4475.897436	4231.282051	4352.820513	4463.076923	4466.153846	1615.000000	2107.000000	35.664000	0.000000	0.000000	0.000000	0.000000	1	1	0	0	0	0	0	0	0	0	0	0	0	0	0	0	0	0	0	1	0.000	0.000
56.000000	4066.153846	4497.435897	4209.743590	4458.461538	4124.615385	4542.051282	4204.615385	4839.487179	4242.051282	4471.282051	4233.846154	4353.333333	4461.538462	4470.256410	1611.000000	2115.000000	35.672000	0.000000	0.000000	0.000000	0.000000	1	1	0	0	0	0	0	0	0	0	0	0	0	0	0	0	0	0	0	1	0.000	0.000
57.000000	4066.666667	4498.974359	4210.769231	4462.051282	4125.128205	4543.076923	4205.641026	4839.487179	4243.076923	4470.256410	4231.794872	4352.307692	4462.051282	4469.743590	1619.000000	2107.000000	35.680000	0.000000	0.000000	0.000000	0.000000	1	1	0	0	0	0	0	0	0	0	0	0	0	0	0	0	0	0	0	1	0.000	0.000
58.000000	4066.153846	4500.512821	4209.230769	4462.564103	4121.538462	4542.051282	4198.461538	4842.564103	4244.615385	4473.333333	4230.769231	4352.820513	4467.692308	4467.692308	1611.000000	2111.000000	35.688000	0.000000	0.000000	0.000000	0.000000	1	1	0	0	0	0	0	0	0	0	0	0	0	0	0	0	0	0	0	1	0.000	0.000
59.000000	4063.076923	4498.974359	4209.230769	4460.512821	4121.025641	4543.076923	4199.487179	4841.538462	4243.076923	4474.358974	4231.794872	4350.256410	4468.717949	4467.179487	1615.000000	2111.000000	35.696000	0.000000	0.000000	0.000000	0.000000	1	1	0	0	0	0	0	0	0	0	0	0	0	0	0	0	0	0	0	1	0.000	0.000
60.000000	4064.102564	4498.461538	4210.769231	4460.512821	4122.051282	4541.025641	4204.615385	4838.461538	4244.615385	4470.256410	4231.282051	4348.717949	4464.102564	4469.743590	1615.000000	2111.000000	35.704000	0.000000	0.000000	0.000000	0.000000	1	1	0	0	0	0	0	0	0	0	0	0	0	0	0	0	0	0	0	1	0.000	0.000
61.000000	4064.615385	4500.512821	4209.230769	4464.102564	4120.000000	4540.512821	4204.102564	4840.512821	4245.641026	4470.256410	4230.256410	4352.307692	4464.102564	4471.794872	1615.000000	2111.000000	35.712000	0.000000	0.000000	0.000000	0.000000	1	1	0	0	0	0	0	0	0	0	0	0	0	0	0	0	0	0	0	1	0.000	0.000
62.000000	4063.589744	4504.102564	4208.205128	4464.615385	4118.461538	4543.589744	4202.564103	4843.589744	4242.564103	4472.307692	4230.256410	4353.846154	4465.641026	4470.769231	1611.000000	2111.000000	35.719000	0.000000	0.000000	0.000000	0.000000	1	1	0	0	0	0	0	0	0	0	0	0	0	0	0	0	0	0	0	1	0.000	0.000
63.000000	4065.641026	4503.589744	4204.615385	4460.512821	4119.487179	4541.025641	4203.076923	4842.564103	4243.589744	4472.820513	4230.256410	4352.307692	4463.589744	4468.205128	1615.000000	2111.000000	35.727000	0.000000	0.000000	0.000000	0.000000	1	1	0	0	0	0	0	0	0	0	0	0	0	0	0	0	0	0	0	1	0.000	0.000
64.000000	4067.692308	4501.538462	4201.538462	4461.538462	4123.076923	4540.000000	4204.102564	4840.512821	4245.641026	4471.794872	4230.769231	4352.307692	4463.076923	4468.205128	1615.000000	2111.000000	35.734000	0.000000	0.000000	0.000000	0.000000	1	1	0	0	0	0	0	0	0	0	0	0	0	0	0	0	0	0	0	1	0.000	0.000
65.000000	4068.717949	4501.538462	4205.641026	4464.615385	4123.076923	4542.051282	4201.538462	4843.076923	4244.102564	4471.282051	4231.282051	4354.358974	4466.153846	4471.794872	1611.000000	2115.000000	35.743000	0.000000	0.000000	0.000000	0.000000	1	1	0	0	0	0	0	0	0	0	0	0	0	0	0	0	0	0	0	1	0.000	0.000
66.000000	4064.615385	4501.538462	4207.692308	4462.051282	4123.589744	4545.128205	4203.589744	4842.564103	4241.025641	4473.333333	4228.205128	4352.820513	4465.641026	4470.256410	1619.000000	2107.000000	35.751000	0.000000	0.000000	0.000000	0.000000	1	1	0	0	0	0	0	0	0	0	0	0	0	0	0	0	0	0	0	1	0.000	0.000
67.000000	4064.615385	4501.025641	4206.153846	4457.948718	4123.076923	4541.538462	4203.076923	4843.076923	4241.538462	4474.358974	4227.692308	4352.820513	4467.692308	4468.717949	1615.000000	2111.000000	35.759000	0.000000	0.000000	0.000000	0.000000	1	1	0	0	0	0	0	0	0	0	0	0	0	0	0	0	0	0	0	1	0.000	0.000
68.000000	4064.102564	4503.076923	4208.205128	4462.051282	4125.641026	4544.615385	4204.615385	4844.102564	4242.051282	4474.871795	4228.717949	4352.820513	4466.666667	4469.743590	1615.000000	2111.000000	35.767000	0.000000	0.000000	0.000000	0.000000	1	1	0	0	0	0	0	0	0	0	0	0	0	0	0	0	0	0	0	1	0.000	0.000
69.000000	4066.666667	4502.564103	4208.717949	4462.051282	4123.589744	4542.564103	4200.000000	4842.564103	4244.102564	4474.358974	4230.256410	4353.846154	4466.153846	4473.333333	1615.000000	2107.000000	35.775000	0.000000	0.000000	0.000000	0.000000	1	1	0	0	0	0	0	0	0	0	0	0	0	0	0	0	0	0	0	1	0.000	0.000
70.000000	4065.641026	4500.512821	4206.666667	4460.000000	4124.615385	4543.076923	4202.051282	4840.512821	4244.615385	4472.820513	4231.282051	4352.307692	4464.615385	4470.769231	1615.000000	2111.000000	35.782000	0.000000	0.000000	0.000000	0.000000	1	1	0	0	0	0	0	0	0	0	0	0	0	0	0	0	0	0	0	1	0.000	0.000
71.000000	4064.102564	4502.564103	4207.692308	4460.000000	4122.564103	4541.538462	4204.102564	4842.051282	4244.102564	4472.307692	4232.307692	4352.820513	4466.666667	4469.743590	1611.000000	2111.000000	35.790000	0.000000	0.000000	0.000000	0.000000	1	1	0	0	0	0	0	0	0	0	0	0	0	0	0	0	0	0	0	1	0.000	0.000
72.000000	4062.564103	4501.538462	4208.205128	4462.564103	4122.051282	4542.051282	4206.666667	4839.487179	4241.538462	4471.794872	4230.256410	4352.820513	4464.102564	4471.794872	1619.000000	2111.000000	35.798000	0.000000	0.000000	0.000000	0.000000	1	1	0	0	0	0	0	0	0	0	0	0	0	0	0	0	0	0	0	1	0.000	0.000
73.000000	4066.666667	4498.461538	4206.666667	4461.025641	4120.000000	4538.974359	4202.051282	4840.512821	4243.589744	4472.820513	4230.256410	4353.333333	4465.641026	4472.820513	1615.000000	2107.000000	35.806000	0.000000	0.000000	0.000000	0.000000	1	1	0	0	0	0	0	0	0	0	0	0	0	0	0	0	0	0	0	1	0.000	0.000
74.000000	4068.205128	4499.487179	4203.076923	4460.512821	4121.538462	4541.538462	4204.102564	4842.564103	4245.128205	4472.307692	4231.282051	4352.820513	4465.641026	4470.769231	1611.000000	2115.000000	35.814000	0.000000	0.000000	0.000000	0.000000	1	1	0	0	0	0	0	0	0	0	0	0	0	0	0	0	0	0	0	1	0.000	0.000
75.000000	4068.205128	4501.538462	4202.564103	4461.538462	4122.051282	4542.564103	4205.641026	4841.025641	4242.564103	4469.230769	4229.743590	4351.794872	4465.128205	4472.820513	1619.000000	2107.000000	35.822000	0.000000	0.000000	0.000000	0.000000	1	1	0	0	0	0	0	0	0	0	0	0	0	0	0	0	0	0	0	1	0.000	0.000
76.000000	4066.153846	4502.051282	4206.666667	4462.564103	4121.538462	4544.102564	4208.205128	4837.948718	4239.487179	4469.230769	4229.230769	4352.307692	4463.589744	4471.282051	1611.000000	2111.000000	35.830000	0.000000	0.000000	0.000000	0.000000	1	1	0	0	0	0	0	0	0	0	0	0	0	0	0	0	0	0	0	1	0.000	0.000
77.000000	4064.102564	4502.051282	4209.743590	4461.025641	4120.512821	4541.025641	4203.589744	4840.512821	4242.051282	4471.282051	4233.333333	4355.897436	4466.153846	4467.179487	1615.000000	2111.000000	35.838000	0.000000	0.000000	0.000000	0.000000	1	1	0	0	0	0	0	0	0	0	0	0	0	0	0	0	0	0	0	1	0.000	0.000
78.000000	4062.564103	4500.512821	4207.179487	4460.512821	4121.538462	4540.000000	4201.025641	4842.051282	4243.589744	4471.282051	4233.333333	4355.384615	4465.641026	4469.230769	1615.000000	2111.000000	35.846000	0.000000	0.000000	0.000000	0.000000	1	1	0	0	0	0	0	0	0	0	0	0	0	0	0	0	0	0	0	1	0.000	0.000
79.000000	4064.102564	4499.487179	4205.641026	4462.051282	4122.051282	4541.025641	4203.076923	4841.025641	4244.102564	4470.256410	4230.769231	4352.820513	4464.615385	4472.820513	1615.000000	2107.000000	35.853000	0.000000	0.000000	0.000000	0.000000	1	1	0	0	0	0	0	0	0	0	0	0	0	0	0	0	0	0	0	1	0.000	0.000
80.000000	4066.153846	4501.025641	4207.692308	4461.025641	4121.538462	4541.025641	4204.102564	4841.025641	4245.641026	4471.794872	4232.820513	4353.333333	4466.153846	4469.230769	1611.000000	2111.000000	35.861000	0.000000	0.000000	0.000000	0.000000	1	1	0	0	0	0	0	0	0	0	0	0	0	0	0	0	0	0	0	1	0.000	0.000
81.000000	4066.666667	4500.000000	4207.692308	4460.000000	4122.051282	4541.538462	4204.615385	4838.974359	4243.589744	4472.307692	4233.333333	4354.871795	4464.615385	4468.205128	1619.000000	2111.000000	35.869000	0.000000	0.000000	0.000000	0.000000	1	1	0	0	0	0	0	0	0	0	0	0	0	0	0	0	0	0	0	1	0.000	0.000
82.000000	4066.153846	4500.000000	4206.153846	4459.487179	4123.076923	4542.564103	4203.076923	4840.512821	4242.051282	4470.769231	4231.794872	4355.384615	4462.564103	4470.769231	1615.000000	2107.000000	35.877000	0.000000	0.000000	0.000000	0.000000	1	1	0	0	0	0	0	0	0	0	0	0	0	0	0	0	0	0	0	1	0.000	0.000
83.000000	4063.589744	4502.564103	4207.179487	4460.000000	4123.589744	4543.076923	4202.564103	4843.589744	4242.051282	4471.282051	4230.769231	4354.358974	4462.564103	4467.692308	1615.000000	2115.000000	35.885000	0.000000	0.000000	0.000000	0.000000	1	1	0	0	0	0	0	0	0	0	0	0	0	0	0	0	0	0	0	1	0.000	0.000
84.000000	4065.641026	4503.076923	4209.743590	4460.000000	4120.512821	4540.512821	4201.538462	4844.102564	4242.564103	4471.282051	4230.769231	4351.794872	4464.102564	4469.743590	1615.000000	2107.000000	35.893000	0.000000	0.000000	0.000000	0.000000	1	1	0	0	0	0	0	0	0	0	0	0	0	0	0	0	0	0	0	1	0.000	0.000
85.000000	4066.153846	4503.589744	4208.205128	4461.025641	4121.538462	4543.589744	4206.153846	4840.512821	4242.051282	4470.769231	4230.256410	4349.230769	4462.051282	4472.820513	1615.000000	2107.000000	35.901000	0.000000	0.000000	0.000000	0.000000	1	1	0	0	0	0	0	0	0	0	0	0	0	0	0	0	0	0	0	1	0.000	0.000
86.000000	4065.641026	4503.076923	4207.692308	4462.051282	4122.051282	4542.051282	4204.615385	4841.025641	4244.615385	4472.307692	4231.794872	4352.820513	4466.153846	4470.769231	1615.000000	2111.000000	35.909000	0.000000	0.000000	0.000000	0.000000	1	1	0	0	0	0	0	0	0	0	0	0	0	0	0	0	0	0	0	1	0.000	0.000
87.000000	4062.051282	4500.512821	4208.717949	4462.051282	4123.076923	4542.564103	4206.153846	4842.564103	4244.102564	4471.794872	4232.820513	4352.820513	4466.153846	4467.692308	1615.000000	2111.000000	35.916000	0.000000	0.000000	0.000000	0.000000	1	1	0	0	0	0	0	0	0	0	0	0	0	0	0	0	0	0	0	1	0.000	0.000
88.000000	4065.128205	4500.000000	4207.692308	4458.974359	4120.000000	4540.000000	4205.128205	4843.076923	4243.076923	4469.230769	4233.333333	4351.794872	4463.589744	4469.743590	1611.000000	2111.000000	35.924000	0.000000	0.000000	0.000000	0.000000	1	1	0	0	0	0	0	0	0	0	0	0	0	0	0	0	0	0	0	1	0.000	0.000
89.000000	4066.666667	4501.538462	4206.666667	4459.487179	4122.564103	4542.564103	4205.641026	4840.000000	4242.051282	4470.256410	4231.282051	4349.743590	4462.051282	4469.230769	1615.000000	2111.000000	35.932000	0.000000	0.000000	0.000000	0.000000	1	1	0	0	0	0	0	0	0	0	0	0	0	0	0	0	0	0	0	1	0.000	0.000
90.000000	4067.179487	4501.025641	4207.692308	4462.051282	4121.538462	4540.000000	4200.512821	4841.538462	4243.589744	4474.358974	4232.307692	4351.282051	4464.615385	4470.256410	1615.000000	2111.000000	35.940000	0.000000	0.000000	0.000000	0.000000	1	1	0	0	0	0	0	0	0	0	0	0	0	0	0	0	0	0	0	1	0.000	0.000
91.000000	4065.128205	4502.051282	4206.153846	4461.538462	4123.589744	4541.538462	4203.589744	4841.538462	4243.076923	4471.794872	4232.820513	4351.794872	4463.076923	4470.769231	1615.000000	2111.000000	35.948000	0.000000	0.000000	0.000000	0.000000	1	1	0	0	0	0	0	0	0	0	0	0	0	0	0	0	0	0	0	1	0.000	0.000
92.000000	4066.666667	4502.564103	4206.153846	4457.948718	4124.615385	4541.025641	4206.153846	4841.538462	4242.564103	4469.743590	4232.820513	4350.769231	4464.102564	4472.307692	1611.000000	2111.000000	35.956000	0.000000	0.000000	0.000000	0.000000	1	1	0	0	0	0	0	0	0	0	0	0	0	0	0	0	0	0	0	1	0.000	0.000
93.000000	4066.666667	4501.025641	4210.256410	4460.000000	4125.128205	4543.076923	4207.179487	4841.538462	4243.076923	4472.307692	4233.333333	4349.230769	4465.128205	4469.230769	1615.000000	2111.000000	35.964000	0.000000	0.000000	0.000000	0.000000	1	1	0	0	0	0	0	0	0	0	0	0	0	0	0	0	0	0	0	1	0.000	0.000
94.000000	4065.641026	4501.025641	4210.256410	4463.076923	4121.538462	4542.051282	4200.512821	4842.564103	4246.153846	4472.820513	4233.333333	4352.820513	4467.179487	4467.692308	1615.000000	2107.000000	35.972000	0.000000	0.000000	0.000000	0.000000	1	1	0	0	0	0	0	0	0	0	0	0	0	0	0	0	0	0	0	1	0.000	0.000
95.000000	4065.128205	4501.025641	4208.205128	4462.564103	4120.512821	4543.076923	4203.589744	4840.000000	4245.128205	4472.307692	4232.820513	4354.358974	4467.179487	4471.282051	1615.000000	2115.000000	35.979000	0.000000	0.000000	0.000000	0.000000	1	1	0	0	0	0	0	0	0	0	0	0	0	0	0	0	0	0	0	1	0.000	0.000
96.000000	4066.153846	4501.025641	4211.794872	4461.538462	4120.512821	4542.564103	4206.666667	4839.487179	4242.564103	4471.282051	4233.333333	4353.846154	4466.153846	4472.820513	1619.000000	2107.000000	35.987000	0.000000	0.000000	0.000000	0.000000	1	1	0	0	0	0	0	0	0	0	0	0	0	0	0	0	0	0	0	1	0.000	0.000
97.000000	4063.589744	4502.564103	4211.794872	4461.538462	4121.025641	4541.025641	4203.589744	4841.025641	4241.538462	4469.743590	4230.256410	4354.358974	4463.589744	4469.230769	1615.000000	2111.000000	35.995000	0.000000	0.000000	0.000000	0.000000	1	1	0	0	0	0	0	0	0	0	0	0	0	0	0	0	0	0	0	1	0.000	0.000
98.000000	4062.564103	4502.051282	4207.179487	4462.564103	4122.051282	4541.025641	4200.000000	4839.487179	4242.564103	4470.769231	4228.205128	4354.358974	4463.589744	4468.717949	1615.000000	2111.000000	36.003000	0.000000	0.000000	0.000000	0.000000	1	1	0	0	0	0	0	0	0	0	0	0	0	0	0	0	0	0	0	1	0.000	0.000
99.000000	4066.153846	4501.025641	4206.153846	4461.025641	4121.538462	4540.512821	4201.538462	4840.000000	4244.102564	4472.820513	4232.307692	4353.333333	4464.102564	4470.769231	1615.000000	2111.000000	36.011000	0.000000	0.000000	0.000000	0.000000	1	1	0	0	0	0	0	0	0	0	0	0	0	0	0	0	0	0	0	1	0.000	0.000
100.000000	4067.179487	4504.102564	4208.717949	4458.461538	4121.025641	4540.512821	4202.564103	4840.512821	4242.564103	4471.794872	4231.282051	4353.333333	4463.589744	4468.205128	1619.000000	2111.000000	36.019000	0.000000	0.000000	0.000000	0.000000	1	1	0	0	0	0	0	0	0	0	0	0	0	0	0	0	0	0	0	1	0.000	0.000
101.000000	4066.666667	4503.589744	4208.205128	4459.487179	4121.538462	4542.051282	4202.051282	4840.512821	4242.051282	4469.230769	4227.179487	4355.384615	4464.615385	4468.205128	1615.000000	2111.000000	36.027000	0.000000	0.000000	0.000000	0.000000	1	1	0	0	0	0	0	0	0	0	0	0	0	0	0	0	0	0	0	1	0.000	0.000
102.000000	4066.153846	4500.512821	4206.153846	4463.076923	4123.589744	4545.641026	4206.153846	4840.512821	4243.076923	4470.256410	4228.205128	4355.897436	4465.128205	4467.692308	1619.000000	2111.000000	36.035000	0.000000	0.000000	0.000000	0.000000	1	1	0	0	0	0	0	0	0	0	0	0	0	0	0	0	0	0	0	1	0.000	0.000
103.000000	4065.641026	4500.512821	4207.179487	4462.051282	4122.051282	4542.051282	4204.615385	4843.589744	4244.102564	4473.846154	4231.282051	4355.384615	4467.692308	4466.153846	1615.000000	2107.000000	36.043000	0.000000	0.000000	0.000000	0.000000	1	1	0	0	0	0	0	0	0	0	0	0	0	0	0	0	0	0	0	1	0.000	0.000
104.000000	4063.589744	4500.512821	4209.743590	4461.538462	4120.512821	4543.589744	4203.589744	4840.512821	4242.051282	4473.333333	4229.743590	4351.794872	4463.589744	4466.666667	1615.000000	2115.000000	36.050000	0.000000	0.000000	0.000000	0.000000	1	1	0	0	0	0	0	0	0	0	0	0	0	0	0	0	0	0	0	1	0.000	0.000
105.000000	4067.179487	4500.000000	4210.769231	4461.025641	4118.974359	4541.538462	4202.564103	4836.410256	4243.076923	4471.794872	4230.769231	4353.333333	4464.102564	4470.256410	1619.000000	2107.000000	36.058000	0.000000	0.000000	0.000000	0.000000	1	1	0	0	0	0	0	0	0	0	0	0	0	0	0	0	0	0	0	1	0.000	0.000
106.000000	4064.615385	4500.512821	4207.692308	4461.538462	4124.615385	4540.512821	4205.641026	4836.923077	4243.589744	4472.820513	4230.256410	4355.384615	4464.615385	4468.205128	1615.000000	2111.000000	36.066000	0.000000	0.000000	0.000000	0.000000	1	1	0	0	0	0	0	0	0	0	0	0	0	0	0	0	0	0	0	1	0.000	0.000
107.000000	4063.589744	4501.538462	4206.153846	4461.025641	4124.615385	4539.487179	4199.487179	4840.512821	4245.128205	4473.333333	4230.256410	4355.384615	4465.128205	4470.769231	1615.000000	2111.000000	36.074000	0.000000	0.000000	0.000000	0.000000	1	1	0	0	0	0	0	0	0	0	0	0	0	0	0	0	0	0	0	1	0.000	0.000
108.000000	4066.153846	4505.128205	4205.641026	4462.051282	4123.076923	4545.128205	4201.025641	4839.487179	4245.128205	4471.282051	4232.307692	4353.333333	4463.589744	4472.820513	1615.000000	2111.000000	36.082000	0.000000	0.000000	0.000000	0.000000	1	1	0	0	0	0	0	0	0	0	0	0	0	0	0	0	0	0	0	1	0.000	0.000
109.000000	4068.717949	4505.128205	4206.666667	4461.538462	4117.948718	4542.564103	4203.589744	4841.025641	4243.589744	4472.820513	4234.358974	4352.820513	4466.666667	4471.282051	1619.000000	2111.000000	36.090000	0.000000	0.000000	0.000000	0.000000	1	1	0	0	0	0	0	0	0	0	0	0	0	0	0	0	0	0	0	1	0.000	0.000
110.000000	4064.102564	4502.564103	4210.256410	4462.051282	4120.000000	4543.589744	4205.128205	4841.025641	4240.000000	4471.794872	4232.307692	4352.820513	4465.641026	4468.205128	1611.000000	2111.000000	36.098000	0.000000	0.000000	0.000000	0.000000	1	1	0	0	0	0	0	0	0	0	0	0	0	0	0	0	0	0	0	1	0.000	0.000
111.000000	4065.641026	4501.538462	4209.230769	4461.025641	4122.051282	4545.641026	4201.025641	4841.538462	4242.051282	4469.230769	4230.769231	4353.846154	4464.615385	4470.769231	1619.000000	2111.000000	36.106000	0.000000	0.000000	0.000000	0.000000	1	1	0	0	0	0	0	0	0	0	0	0	0	0	0	0	0	0	0	1	0.000	0.000
112.000000	4067.179487	4503.076923	4209.230769	4460.512821	4123.076923	4546.153846	4202.051282	4843.589744	4244.102564	4472.307692	4230.256410	4352.307692	4463.076923	4471.282051	1615.000000	2107.000000	36.113000	0.000000	0.000000	0.000000	0.000000	1	1	0	0	0	0	0	0	0	0	0	0	0	0	0	0	0	0	0	1	0.000	0.000
113.000000	4065.128205	4503.076923	4211.794872	4460.512821	4121.025641	4540.512821	4201.025641	4844.615385	4243.589744	4473.846154	4232.307692	4351.794872	4465.641026	4470.256410	1615.000000	2115.000000	36.121000	0.000000	0.000000	0.000000	0.000000	1	1	0	0	0	0	0	0	0	0	0	0	0	0	0	0	0	0	0	1	0.000	0.000
114.000000	4064.615385	4503.076923	4209.230769	4459.487179	4122.564103	4540.512821	4202.051282	4844.102564	4242.564103	4471.794872	4231.794872	4351.794872	4466.666667	4469.230769	1615.000000	2111.000000	36.129000	0.000000	0.000000	0.000000	0.000000	1	1	0	0	0	0	0	0	0	0	0	0	0	0	0	0	0	0	0	1	0.000	0.000
115.000000	4067.179487	4502.564103	4208.205128	4458.974359	4123.076923	4539.487179	4203.076923	4843.589744	4242.564103	4472.307692	4230.256410	4353.333333	4464.615385	4468.205128	1615.000000	2111.000000	36.137000	0.000000	0.000000	0.000000	0.000000	1	1	0	0	0	0	0	0	0	0	0	0	0	0	0	0	0	0	0	1	0.000	0.000
116.000000	4066.153846	4500.000000	4209.743590	4461.538462	4121.025641	4538.461538	4203.589744	4841.025641	4242.051282	4472.820513	4231.794872	4352.307692	4461.025641	4467.692308	1615.000000	2111.000000	36.145000	0.000000	0.000000	0.000000	0.000000	1	1	0	0	0	0	0	0	0	0	0	0	0	0	0	0	0	0	0	1	0.000	0.000
117.000000	4064.615385	4500.512821	4207.179487	4461.025641	4121.538462	4541.025641	4203.589744	4839.487179	4242.564103	4471.794872	4233.333333	4351.282051	4462.564103	4467.692308	1615.000000	2115.000000	36.153000	0.000000	0.000000	0.000000	0.000000	1	1	0	0	0	0	0	0	0	0	0	0	0	0	0	0	0	0	0	1	0.000	0.000
118.000000	4066.153846	4502.051282	4206.153846	4458.461538	4125.128205	4542.051282	4203.076923	4843.076923	4244.102564	4472.307692	4231.794872	4352.820513	4466.666667	4469.230769	1619.000000	2107.000000	36.161000	0.000000	0.000000	0.000000	0.000000	1	1	0	0	0	0	0	0	0	0	0	0	0	0	0	0	0	0	0	1	0.000	0.000
119.000000	4066.153846	4500.000000	4207.179487	4461.538462	4125.641026	4542.051282	4206.666667	4844.615385	4243.589744	4472.307692	4229.743590	4352.820513	4465.641026	4470.256410	1611.000000	2111.000000	36.169000	0.000000	0.000000	0.000000	0.000000	1	1	0	0	0	0	0	0	0	0	0	0	0	0	0	0	0	0	0	1	0.000	0.000
120.000000	4065.641026	4501.025641	4208.205128	4464.102564	4121.025641	4541.025641	4206.666667	4843.076923	4244.102564	4472.307692	4233.333333	4354.358974	4465.128205	4472.307692	1615.000000	2115.000000	36.177000	0.000000	0.000000	0.000000	0.000000	1	1	0	0	0	0	0	0	0	0	0	0	0	0	0	0	0	0	0	1	0.000	0.000
121.000000	4063.076923	4506.153846	4209.230769	4461.538462	4120.000000	4544.102564	4204.102564	4841.025641	4245.641026	4471.282051	4233.333333	4355.897436	4463.589744	4473.333333	1615.000000	2107.000000	36.184000	0.000000	0.000000	0.000000	0.000000	1	1	0	0	0	0	0	0	0	0	0	0	0	0	0	0	0	0	0	1	0.000	0.000
122.000000	4063.076923	4504.615385	4207.179487	4460.000000	4122.051282	4542.564103	4202.564103	4841.538462	4246.153846	4471.282051	4230.256410	4354.871795	4463.589744	4473.333333	1615.000000	2111.000000	36.192000	0.000000	0.000000	0.000000	0.000000	1	1	0	0	0	0	0	0	0	0	0	0	0	0	0	0	0	0	0	1	0.000	0.000
123.000000	4063.076923	4500.512821	4204.102564	4462.564103	4122.564103	4542.564103	4207.179487	4841.538462	4243.589744	4472.307692	4229.743590	4351.794872	4462.564103	4468.205128	1615.000000	2111.000000	36.200000	0.000000	0.000000	0.000000	0.000000	1	1	0	0	0	0	0	0	0	0	0	0	0	0	0	0	0	0	0	1	0.000	0.000
124.000000	4065.641026	4501.025641	4207.692308	4462.051282	4115.897436	4537.435897	4201.538462	4842.564103	4244.615385	4473.846154	4232.307692	4353.333333	4467.179487	4469.743590	1615.000000	2111.000000	36.208000	0.000000	0.000000	0.000000	0.000000	1	1	0	0	0	0	0	0	0	0	0	0	0	0	0	0	0	0	0	1	0.000	0.000
125.000000	4064.615385	4502.564103	4208.717949	4462.051282	4117.948718	4540.000000	4203.076923	4842.051282	4245.128205	4472.820513	4230.256410	4354.358974	4465.641026	4474.871795	1615.000000	2111.000000	36.216000	0.000000	0.000000	0.000000	0.000000	1	1	0	0	0	0	0	0	0	0	0	0	0	0	0	0	0	0	0	1	0.000	0.000
126.000000	4067.692308	4500.512821	4204.102564	4462.051282	4120.512821	4540.000000	4204.102564	4843.076923	4244.615385	4473.333333	4231.282051	4353.846154	4464.615385	4473.333333	1615.000000	2111.000000	36.224000	0.000000	0.000000	0.000000	0.000000	1	1	0	0	0	0	0	0	0	0	0	0	0	0	0	0	0	0	0	1	0.000	0.000
127.000000	4065.128205	4501.538462	4204.615385	4463.076923	4121.538462	4542.564103	4203.076923	4840.000000	4241.025641	4473.333333	4233.333333	4352.307692	4464.102564	4466.153846	1615.000000	2111.000000	36.232000	0.000000	0.000000	0.000000	0.000000	1	1	0	0	0	0	0	0	0	0	0	0	0	0	0	0	0	0	0	1	0.000	0.000
128.000000	4064.102564	4503.589744	4209.230769	4461.025641	4120.000000	4541.025641	4198.974359	4837.948718	4242.564103	4470.256410	4233.333333	4352.820513	4466.666667	4468.205128	1615.000000	2111.000000	36.240000	0.000000	0.000000	0.000000	0.000000	1	1	0	0	0	0	0	0	0	0	0	0	0	0	0	0	0	0	0	1	0.000	0.000
0.000000	4063.589744	4503.076923	4207.179487	4461.538462	4123.076923	4544.102564	4204.615385	4838.461538	4244.102564	4470.256410	4232.307692	4351.282051	4465.641026	4468.717949	1615.000000	2111.000000	36.247000	0.000000	0.000000	0.000000	0.000000	1	1	0	0	0	0	0	0	0	0	0	0	0	0	0	0	0	0	0	1	0.000	0.000
1.000000	4066.666667	4502.051282	4205.641026	4461.538462	4123.076923	4543.589744	4204.615385	4840.512821	4242.564103	4471.282051	4234.358974	4350.769231	4466.666667	4469.230769	1615.000000	2111.000000	36.255000	0.000000	0.000000	0.000000	0.000000	1	1	0	0	0	0	0	0	0	0	0	0	0	0	0	0	0	0	0	1	0.000	0.000
2.000000	4064.615385	4501.538462	4207.179487	4462.051282	4122.564103	4545.128205	4202.051282	4840.000000	4240.512821	4471.282051	4233.333333	4352.307692	4464.102564	4470.769231	1615.000000	2111.000000	36.263000	0.000000	0.000000	0.000000	0.000000	1	1	0	0	0	0	0	0	0	0	0	0	0	0	0	0	0	0	0	1	0.000	0.000
3.000000	4063.589744	4500.000000	4208.717949	4462.051282	4120.000000	4542.564103	4201.538462	4839.487179	4242.051282	4470.256410	4229.743590	4354.358974	4463.076923	4471.794872	1615.000000	2111.000000	36.270000	0.000000	0.000000	0.000000	0.000000	1	1	0	0	0	0	0	0	0	0	0	0	0	0	0	0	0	0	0	1	0.000	0.000
4.000000	4063.589744	4499.487179	4208.205128	4460.512821	4119.487179	4542.051282	4205.128205	4839.487179	4241.538462	4469.743590	4228.717949	4352.307692	4465.128205	4468.205128	1619.000000	2107.000000	36.279000	0.000000	0.000000	0.000000	0.000000	1	1	0	0	0	0	0	0	0	0	0	0	0	0	0	0	0	0	0	1	0.000	0.000
5.000000	4064.102564	4501.025641	4208.717949	4460.512821	4122.051282	4543.589744	4203.076923	4841.538462	4242.564103	4473.333333	4228.717949	4351.794872	4463.589744	4468.717949	1615.000000	2115.000000	36.287000	0.000000	0.000000	0.000000	0.000000	1	1	0	0	0	0	0	0	0	0	0	0	0	0	0	0	0	0	0	1	0.000	0.000
6.000000	4065.128205	4500.512821	4209.230769	4462.051282	4122.564103	4545.128205	4200.512821	4843.076923	4245.128205	4475.384615	4228.717949	4353.333333	4460.512821	4471.794872	1619.000000	2111.000000	36.295000	0.000000	0.000000	0.000000	0.000000	1	1	0	0	0	0	0	0	0	0	0	0	0	0	0	0	0	0	0	1	0.000	0.000
7.000000	4064.102564	4499.487179	4207.692308	4462.564103	4122.051282	4544.615385	4203.589744	4843.076923	4243.589744	4471.282051	4229.743590	4353.333333	4462.564103	4469.230769	1615.000000	2111.000000	36.303000	0.000000	0.000000	0.000000	0.000000	1	1	0	0	0	0	0	0	0	0	0	0	0	0	0	0	0	0	0	1	0.000	0.000
8.000000	4064.102564	4501.025641	4207.179487	4461.538462	4122.564103	4540.512821	4203.589744	4842.564103	4242.564103	4469.230769	4230.256410	4353.846154	4466.153846	4467.692308	1615.000000	2111.000000	36.310000	0.000000	0.000000	0.000000	0.000000	1	1	0	0	0	0	0	0	0	0	0	0	0	0	0	0	0	0	0	1	0.000	0.000
9.000000	4064.615385	4498.974359	4208.717949	4462.564103	4125.128205	4539.487179	4202.051282	4839.487179	4243.589744	4471.282051	4230.256410	4352.820513	4465.128205	4468.205128	1615.000000	2115.000000	36.318000	0.000000	0.000000	0.000000	0.000000	1	1	0	0	0	0	0	0	0	0	0	0	0	0	0	0	0	0	0	1	0.000	0.000
10.000000	4066.666667	4499.487179	4211.282051	4462.564103	4123.076923	4540.512821	4201.025641	4838.461538	4245.641026	4470.769231	4231.282051	4352.307692	4465.641026	4470.256410	1619.000000	2111.000000	36.326000	0.000000	0.000000	0.000000	0.000000	1	1	0	0	0	0	0	0	0	0	0	0	0	0	0	0	0	0	0	1	0.000	0.000
11.000000	4065.641026	4506.153846	4212.307692	4461.025641	4122.051282	4544.102564	4205.128205	4839.487179	4245.128205	4469.743590	4229.743590	4352.307692	4465.128205	4470.256410	1615.000000	2111.000000	36.334000	0.000000	0.000000	0.000000	0.000000	1	1	0	0	0	0	0	0	0	0	0	0	0	0	0	0	0	0	0	1	0.000	0.000
12.000000	4066.666667	4504.615385	4207.179487	4458.974359	4123.076923	4541.025641	4203.589744	4840.512821	4243.076923	4471.282051	4229.743590	4352.820513	4467.692308	4470.769231	1615.000000	2115.000000	36.342000	0.000000	0.000000	0.000000	0.000000	1	1	0	0	0	0	0	0	0	0	0	0	0	0	0	0	0	0	0	1	0.000	0.000
13.000000	4066.153846	4500.512821	4203.589744	4460.512821	4126.153846	4542.051282	4204.615385	4840.512821	4240.512821	4471.794872	4228.717949	4352.307692	4464.102564	4468.717949	1615.000000	2111.000000	36.350000	0.000000	0.000000	0.000000	0.000000	1	1	0	0	0	0	0	0	0	0	0	0	0	0	0	0	0	0	0	1	0.000	0.000
14.000000	4067.179487	4502.051282	4207.179487	4461.025641	4120.512821	4542.051282	4203.589744	4845.128205	4244.102564	4472.307692	4230.256410	4353.846154	4462.051282	4469.230769	1615.000000	2115.000000	36.358000	0.000000	0.000000	0.000000	0.000000	1	1	0	0	0	0	0	0	0	0	0	0	0	0	0	0	0	0	0	1	0.000	0.000
15.000000	4065.641026	4501.538462	4208.717949	4460.000000	4120.000000	4543.589744	4206.666667	4844.102564	4243.589744	4472.820513	4231.794872	4350.769231	4462.051282	4468.717949	1619.000000	2111.000000	36.366000	0.000000	0.000000	0.000000	0.000000	1	1	0	0	0	0	0	0	0	0	0	0	0	0	0	0	0	0	0	1	0.000	0.000
16.000000	4067.692308	4497.435897	4206.153846	4459.487179	4122.051282	4539.487179	4203.076923	4840.512821	4241.538462	4472.820513	4231.794872	4349.230769	4466.153846	4470.256410	1615.000000	2115.000000	36.374000	0.000000	0.000000	0.000000	0.000000	1	1	0	0	0	0	0	0	0	0	0	0	0	0	0	0	0	0	0	1	0.000	0.000
17.000000	4067.179487	4498.461538	4207.692308	4462.564103	4123.076923	4540.512821	4202.564103	4841.538462	4240.512821	4470.769231	4230.256410	4352.820513	4463.076923	4471.282051	1615.000000	2111.000000	36.381000	0.000000	0.000000	0.000000	0.000000	1	1	0	0	0	0	0	0	0	0	0	0	0	0	0	0	0	0	0	1	0.000	0.000
18.000000	4067.179487	4500.000000	4210.769231	4461.025641	4120.000000	4540.512821	4203.589744	4843.589744	4243.076923	4471.794872	4232.307692	4355.384615	4462.051282	4471.282051	1615.000000	2115.000000	36.389000	0.000000	0.000000	0.000000	0.000000	1	1	0	0	0	0	0	0	0	0	0	0	0	0	0	0	0	0	0	1	0.000	0.000
19.000000	4064.102564	4500.000000	4208.717949	4458.974359	4121.538462	4544.102564	4206.153846	4840.000000	4244.102564	4472.820513	4232.307692	4352.307692	4464.102564	4470.256410	1619.000000	2111.000000	36.397000	0.000000	0.000000	0.000000	0.000000	1	1	0	0	0	0	0	0	0	0	0	0	0	0	0	0	0	0	0	1	0.000	0.000
20.000000	4063.076923	4501.538462	4209.230769	4460.512821	4121.538462	4543.076923	4198.974359	4840.000000	4242.564103	4471.794872	4231.794872	4352.307692	4464.615385	4471.794872	1615.000000	2111.000000	36.405000	0.000000	0.000000	0.000000	0.000000	1	1	0	0	0	0	0	0	0	0	0	0	0	0	0	0	0	0	0	1	0.000	0.000
21.000000	4063.589744	4500.512821	4211.794872	4462.564103	4123.076923	4543.589744	4200.000000	4841.025641	4241.538462	4471.282051	4231.794872	4354.358974	4462.564103	4469.230769	1615.000000	2115.000000	36.413000	0.000000	0.000000	0.000000	0.000000	1	1	0	0	0	0	0	0	0	0	0	0	0	0	0	0	0	0	0	1	0.000	0.000
22.000000	4064.615385	4499.487179	4209.743590	4460.000000	4123.589744	4543.076923	4203.589744	4840.000000	4243.076923	4473.846154	4231.794872	4354.358974	4465.128205	4466.153846	1619.000000	2111.000000	36.421000	0.000000	0.000000	0.000000	0.000000	1	1	0	0	0	0	0	0	0	0	0	0	0	0	0	0	0	0	0	1	0.000	0.000
23.000000	4065.128205	4500.000000	4207.692308	4460.512821	4122.051282	4543.589744	4202.564103	4838.974359	4242.564103	4473.333333	4231.794872	4351.282051	4465.641026	4467.692308	1615.000000	2115.000000	36.429000	0.000000	0.000000	0.000000	0.000000	1	1	0	0	0	0	0	0	0	0	0	0	0	0	0	0	0	0	0	1	0.000	0.000
24.000000	4067.179487	4500.000000	4208.717949	4463.076923	4123.076923	4542.051282	4202.564103	4839.487179	4241.025641	4471.282051	4232.820513	4350.769231	4464.102564	4468.717949	1615.000000	2111.000000	36.437000	0.000000	0.000000	0.000000	0.000000	1	1	0	0	0	0	0	0	0	0	0	0	0	0	0	0	0	0	0	1	0.000	0.000
25.000000	4067.692308	4500.512821	4206.666667	4461.538462	4124.615385	4542.564103	4206.666667	4840.512821	4243.589744	4471.794872	4232.307692	4354.358974	4464.615385	4468.717949	1615.000000	2115.000000	36.444000	0.000000	0.000000	0.000000	0.000000	1	1	0	0	0	0	0	0	0	0	0	0	0	0	0	0	0	0	0	1	0.000	0.000
26.000000	4067.179487	4502.051282	4205.641026	4460.000000	4124.102564	4545.128205	4205.641026	4841.025641	4245.641026	4473.333333	4230.256410	4355.897436	4466.153846	4469.230769	1615.000000	2111.000000	36.452000	0.000000	0.000000	0.000000	0.000000	1	1	0	0	0	0	0	0	0	0	0	0	0	0	0	0	0	0	0	1	0.000	0.000
27.000000	4066.666667	4501.538462	4209.230769	4462.564103	4122.564103	4542.051282	4201.025641	4841.538462	4245.128205	4472.307692	4229.743590	4353.333333	4465.641026	4469.743590	1615.000000	2115.000000	36.460000	0.000000	0.000000	0.000000	0.000000	1	1	0	0	0	0	0	0	0	0	0	0	0	0	0	0	0	0	0	1	0.000	0.000
28.000000	4065.641026	4500.000000	4210.769231	4462.564103	4124.102564	4541.025641	4203.589744	4840.000000	4243.076923	4469.743590	4230.769231	4350.256410	4462.051282	4468.717949	1619.000000	2111.000000	36.468000	0.000000	0.000000	0.000000	0.000000	1	1	0	0	0	0	0	0	0	0	0	0	0	0	0	0	0	0	0	1	0.000	0.000
29.000000	4067.179487	4500.000000	4208.717949	4461.538462	4124.615385	4540.512821	4202.564103	4841.025641	4244.102564	4469.230769	4232.820513	4352.307692	4464.102564	4470.769231	1611.000000	2111.000000	36.476000	0.000000	0.000000	0.000000	0.000000	1	1	0	0	0	0	0	0	0	0	0	0	0	0	0	0	0	0	0	1	0.000	0.000
30.000000	4065.641026	4502.051282	4207.179487	4463.076923	4123.076923	4542.564103	4201.538462	4842.564103	4244.615385	4469.743590	4230.769231	4352.307692	4463.076923	4471.794872	1615.000000	2115.000000	36.484000	0.000000	0.000000	0.000000	0.000000	1	1	0	0	0	0	0	0	0	0	0	0	0	0	0	0	0	0	0	1	0.000	0.000
31.000000	4066.153846	4502.564103	4206.666667	4461.025641	4118.974359	4538.974359	4200.512821	4841.025641	4244.615385	4468.717949	4232.820513	4351.794872	4463.589744	4470.256410	1619.000000	2111.000000	36.492000	0.000000	0.000000	0.000000	0.000000	1	1	0	0	0	0	0	0	0	0	0	0	0	0	0	0	0	0	0	1	0.000	0.000
32.000000	4065.128205	4501.025641	4204.615385	4462.051282	4123.076923	4541.538462	4206.153846	4836.410256	4241.025641	4469.743590	4234.871795	4352.820513	4462.051282	4466.153846	1615.000000	2111.000000	36.500000	0.000000	0.000000	0.000000	0.000000	1	1	0	0	0	0	0	0	0	0	0	0	0	0	0	0	0	0	0	1	0.000	0.000
33.000000	4067.692308	4500.000000	4206.153846	4463.589744	4124.102564	4541.025641	4203.076923	4840.000000	4241.538462	4472.820513	4234.358974	4354.358974	4465.641026	4469.743590	1615.000000	2111.000000	36.508000	0.000000	0.000000	0.000000	0.000000	1	1	0	0	0	0	0	0	0	0	0	0	0	0	0	0	0	0	0	1	0.000	0.000
34.000000	4068.717949	4500.000000	4211.282051	4460.512821	4121.538462	4542.564103	4202.564103	4841.538462	4242.051282	4471.282051	4231.282051	4352.307692	4463.076923	4471.282051	1615.000000	2111.000000	36.515000	0.000000	0.000000	0.000000	0.000000	1	1	0	0	0	0	0	0	0	0	0	0	0	0	0	0	0	0	0	1	0.000	0.000
35.000000	4067.179487	4500.000000	4210.769231	4456.923077	4121.025641	4540.512821	4201.538462	4839.487179	4242.051282	4471.282051	4231.794872	4353.333333	4463.076923	4471.794872	1615.000000	2107.000000	36.523000	0.000000	0.000000	0.000000	0.000000	1	1	0	0	0	0	0	0	0	0	0	0	0	0	0	0	0	0	0	1	0.000	0.000
36.000000	4060.512821	4500.512821	4207.179487	4461.538462	4125.641026	4544.102564	4203.589744	4840.000000	4240.512821	4472.307692	4231.794872	4354.871795	4463.589744	4471.794872	1619.000000	2111.000000	36.531000	0.000000	0.000000	0.000000	0.000000	1	1	0	0	0	0	0	0	0	0	0	0	0	0	0	0	0	0	0	1	0.000	0.000
37.000000	4063.589744	4501.025641	4209.230769	4462.051282	4122.564103	4544.102564	4200.000000	4843.076923	4241.538462	4471.282051	4231.794872	4353.333333	4464.102564	4470.769231	1615.000000	2111.000000	36.539000	0.000000	0.000000	0.000000	0.000000	1	1	0	0	0	0	0	0	0	0	0	0	0	0	0	0	0	0	0	1	0.000	0.000
38.000000	4066.666667	4501.025641	4209.743590	4461.025641	4123.589744	4544.615385	4203.076923	4839.487179	4241.025641	4470.256410	4231.282051	4351.282051	4463.589744	4467.692308	1619.000000	2111.000000	36.547000	0.000000	0.000000	0.000000	0.000000	1	1	0	0	0	0	0	0	0	0	0	0	0	0	0	0	0	0	0	1	0.000	0.000
39.000000	4064.615385	4500.000000	4208.205128	4460.000000	4122.564103	4543.076923	4205.641026	4838.461538	4242.564103	4472.307692	4231.282051	4354.358974	4467.179487	4470.256410	1615.000000	2115.000000	36.555000	0.000000	0.000000	0.000000	0.000000	1	1	0	0	0	0	0	0	0	0	0	0	0	0	0	0	0	0	0	1	0.000	0.000
40.000000	4064.102564	4499.487179	4211.794872	4460.512821	4120.000000	4543.076923	4207.179487	4840.512821	4244.615385	4473.333333	4231.282051	4355.897436	4466.153846	4471.282051	1619.000000	2111.000000	36.563000	0.000000	0.000000	0.000000	0.000000	1	1	0	0	0	0	0	0	0	0	0	0	0	0	0	0	0	0	0	1	0.000	0.000
41.000000	4068.205128	4499.487179	4212.820513	4461.538462	4119.487179	4540.512821	4202.564103	4840.512821	4246.153846	4473.333333	4231.282051	4355.384615	4462.564103	4469.230769	1615.000000	2111.000000	36.571000	0.000000	0.000000	0.000000	0.000000	1	1	0	0	0	0	0	0	0	0	0	0	0	0	0	0	0	0	0	1	0.000	0.000
42.000000	4068.205128	4499.487179	4207.179487	4460.000000	4122.564103	4540.000000	4200.000000	4839.487179	4246.153846	4472.307692	4231.794872	4355.384615	4461.538462	4469.743590	1615.000000	2115.000000	36.578000	0.000000	0.000000	0.000000	0.000000	1	1	0	0	0	0	0	0	0	0	0	0	0	0	0	0	0	0	0	1	0.000	0.000
43.000000	4065.641026	4501.538462	4205.641026	4460.512821	4121.538462	4542.051282	4203.589744	4840.512821	4242.051282	4471.282051	4230.256410	4352.307692	4465.128205	4472.820513	1619.000000	2111.000000	36.586000	0.000000	0.000000	0.000000	0.000000	1	1	0	0	0	0	0	0	0	0	0	0	0	0	0	0	0	0	0	1	0.000	0.000
44.000000	4065.128205	4502.051282	4207.179487	4464.102564	4120.000000	4542.564103	4204.615385	4840.512821	4241.025641	4472.307692	4228.205128	4352.307692	4466.666667	4471.282051	1615.000000	2115.000000	36.594000	0.000000	0.000000	0.000000	0.000000	1	1	0	0	0	0	0	0	0	0	0	0	0	0	0	0	0	0	0	1	0.000	0.000
45.000000	4065.128205	4498.974359	4207.179487	4463.076923	4122.564103	4543.589744	4204.102564	4843.076923	4243.076923	4472.820513	4228.717949	4354.358974	4464.102564	4467.179487	1615.000000	2111.000000	36.602000	0.000000	0.000000	0.000000	0.000000	1	1	0	0	0	0	0	0	0	0	0	0	0	0	0	0	0	0	0	1	0.000	0.000
46.000000	4066.153846	4497.435897	4206.666667	4457.948718	4122.564103	4542.051282	4203.589744	4847.179487	4243.076923	4470.256410	4230.769231	4354.871795	4462.564103	4466.666667	1615.000000	2111.000000	36.610000	0.000000	0.000000	0.000000	0.000000	1	1	0	0	0	0	0	0	0	0	0	0	0	0	0	0	0	0	0	1	0.000	0.000
47.000000	4065.128205	4500.000000	4207.179487	4458.461538	4122.051282	4541.538462	4204.615385	4843.076923	4241.538462	4468.717949	4231.282051	4352.820513	4461.538462	4467.692308	1619.000000	2111.000000	36.618000	0.000000	0.000000	0.000000	0.000000	1	1	0	0	0	0	0	0	0	0	0	0	0	0	0	0	0	0	0	1	0.000	0.000
48.000000	4066.153846	4500.000000	4205.641026	4461.025641	4121.538462	4538.974359	4202.051282	4837.948718	4243.589744	4470.769231	4233.846154	4354.871795	4463.076923	4468.717949	1615.000000	2115.000000	36.626000	0.000000	0.000000	0.000000	0.000000	1	1	0	0	0	0	0	0	0	0	0	0	0	0	0	0	0	0	0	1	0.000	0.000
49.000000	4063.589744	4500.512821	4207.179487	4461.025641	4124.615385	4542.564103	4206.666667	4839.487179	4243.589744	4471.282051	4232.820513	4354.358974	4462.051282	4470.769231	1619.000000	2111.000000	36.634000	0.000000	0.000000	0.000000	0.000000	1	1	0	0	0	0	0	0	0	0	0	0	0	0	0	0	0	0	0	1	0.000	0.000
50.000000	4064.102564	4502.051282	4210.256410	4460.000000	4121.538462	4542.051282	4205.641026	4843.076923	4243.589744	4470.769231	4231.794872	4352.307692	4466.153846	4473.333333	1615.000000	2111.000000	36.641000	0.000000	0.000000	0.000000	0.000000	1	1	0	0	0	0	0	0	0	0	0	0	0	0	0	0	0	0	0	1	0.000	0.000
51.000000	4067.179487	4502.564103	4207.692308	4461.025641	4122.564103	4543.589744	4203.589744	4839.487179	4244.102564	4470.256410	4231.794872	4351.282051	4463.076923	4470.769231	1615.000000	2115.000000	36.649000	0.000000	0.000000	0.000000	0.000000	1	1	0	0	0	0	0	0	0	0	0	0	0	0	0	0	0	0	0	1	0.000	0.000
52.000000	4069.743590	4501.538462	4205.128205	4460.000000	4122.564103	4541.025641	4201.025641	4838.974359	4244.615385	4470.769231	4230.769231	4354.871795	4461.025641	4469.743590	1619.000000	2111.000000	36.657000	0.000000	0.000000	0.000000	0.000000	1	1	0	0	0	0	0	0	0	0	0	0	0	0	0	0	0	0	0	1	0.000	0.000
53.000000	4063.076923	4501.025641	4208.717949	4458.461538	4121.025641	4544.102564	4204.615385	4839.487179	4244.102564	4472.307692	4229.230769	4354.871795	4462.564103	4469.743590	1615.000000	2115.000000	36.665000	0.000000	0.000000	0.000000	0.000000	1	1	0	0	0	0	0	0	0	0	0	0	0	0	0	0	0	0	0	1	0.000	0.000
54.000000	4062.564103	4501.538462	4211.794872	4457.948718	4117.948718	4541.538462	4201.538462	4841.025641	4243.589744	4472.307692	4233.333333	4353.846154	4464.615385	4471.282051	1615.000000	2111.000000	36.673000	0.000000	0.000000	0.000000	0.000000	1	1	0	0	0	0	0	0	0	0	0	0	0	0	0	0	0	0	0	1	0.000	0.000
55.000000	4064.615385	4501.025641	4205.641026	4462.051282	4122.564103	4542.051282	4203.076923	4840.512821	4240.000000	4470.769231	4233.333333	4353.333333	4461.538462	4472.307692	1619.000000	2115.000000	36.681000	0.000000	0.000000	0.000000	0.000000	1	1	0	0	0	0	0	0	0	0	0	0	0	0	0	0	0	0	0	1	0.000	0.000
56.000000	4066.153846	4500.512821	4203.589744	4464.615385	4123.076923	4541.538462	4203.076923	4841.538462	4241.538462	4470.769231	4229.230769	4352.820513	4462.051282	4474.358974	1615.000000	2111.000000	36.689000	0.000000	0.000000	0.000000	0.000000	1	1	0	0	0	0	0	0	0	0	0	0	0	0	0	0	0	0	0	1	0.000	0.000
57.000000	4064.102564	4500.000000	4207.179487	4464.102564	4121.025641	4545.641026	4206.153846	4841.538462	4242.564103	4472.307692	4226.153846	4349.743590	4462.564103	4469.743590	1615.000000	2115.000000	36.697000	0.000000	0.000000	0.000000	0.000000	1	1	0	0	0	0	0	0	0	0	0	0	0	0	0	0	0	0	0	1	0.000	0.000
58.000000	4064.102564	4500.000000	4207.179487	4460.000000	4120.000000	4544.102564	4203.589744	4840.512821	4243.076923	4473.333333	4228.205128	4352.307692	4464.102564	4467.692308	1619.000000	2115.000000	36.705000	0.000000	0.000000	0.000000	0.000000	1	1	0	0	0	0	0	0	0	0	0	0	0	0	0	0	0	0	0	1	0.000	0.000
59.000000	4063.589744	4501.025641	4207.179487	4459.487179	4120.000000	4542.051282	4201.538462	4838.974359	4244.102564	4471.794872	4231.794872	4354.871795	4462.564103	4469.230769	1615.000000	2111.000000	36.712000	0.000000	0.000000	0.000000	0.000000	1	1	0	0	0	0	0	0	0	0	0	0	0	0	0	0	0	0	0	1	0.000	0.000
60.000000	4065.641026	4501.025641	4211.282051	4461.538462	4120.000000	4540.512821	4203.076923	4840.512821	4244.615385	4473.846154	4232.820513	4351.794872	4461.538462	4470.256410	1615.000000	2115.000000	36.720000	0.000000	0.000000	0.000000	0.000000	1	1	0	0	0	0	0	0	0	0	0	0	0	0	0	0	0	0	0	1	0.000	0.000
61.000000	4066.666667	4500.512821	4214.871795	4461.538462	4124.102564	4541.538462	4206.153846	4842.564103	4241.538462	4476.923077	4231.794872	4350.769231	4463.589744	4469.743590	1619.000000	2111.000000	36.728000	0.000000	0.000000	0.000000	0.000000	1	1	0	0	0	0	0	0	0	0	0	0	0	0	0	0	0	0	0	1	0.000	0.000
62.000000	4066.153846	4501.025641	4209.743590	4458.974359	4125.641026	4543.589744	4207.179487	4841.538462	4240.512821	4474.871795	4232.307692	4353.846154	4464.615385	4470.769231	1615.000000	2111.000000	36.735000	0.000000	0.000000	0.000000	0.000000	1	1	0	0	0	0	0	0	0	0	0	0	0	0	0	0	0	0	0	1	0.000	0.000
63.000000	4065.128205	4501.538462	4205.128205	4459.487179	4121.538462	4542.564103	4205.641026	4840.512821	4243.076923	4469.743590	4233.333333	4352.820513	4463.076923	4471.794872	1615.000000	2115.000000	36.744000	0.000000	0.000000	0.000000	0.000000	1	1	0	0	0	0	0	0	0	0	0	0	0	0	0	0	0	0	0	1	0.000	0.000
64.000000	4066.153846	4500.000000	4207.179487	4461.538462	4121.538462	4542.564103	4206.153846	4840.512821	4243.589744	4470.769231	4230.256410	4351.794872	4462.564103	4469.230769	1615.000000	2115.000000	36.752000	0.000000	0.000000	0.000000	0.000000	1	1	0	0	0	0	0	0	0	0	0	0	0	0	0	0	0	0	0	1	0.000	0.000
65.000000	4067.692308	4500.000000	4212.307692	4460.512821	4122.564103	4543.076923	4204.615385	4840.512821	4243.589744	4473.846154	4229.230769	4354.871795	4465.128205	4470.256410	1615.000000	2111.000000	36.759000	0.000000	0.000000	0.000000	0.000000	1	1	0	0	0	0	0	0	0	0	0	0	0	0	0	0	0	0	0	1	0.000	0.000
66.000000	4064.615385	4504.102564	4211.282051	4460.512821	4122.051282	4544.102564	4206.153846	4840.000000	4241.538462	4471.794872	4230.769231	4352.820513	4463.076923	4471.282051	1615.000000	2115.000000	36.768000	0.000000	0.000000	0.000000	0.000000	1	1	0	0	0	0	0	0	0	0	0	0	0	0	0	0	0	0	0	1	0.000	0.000
67.000000	4066.153846	4503.076923	4208.205128	4462.051282	4120.000000	4540.512821	4203.076923	4840.512821	4241.538462	4471.794872	4233.846154	4351.794872	4463.589744	4471.794872	1619.000000	2111.000000	36.774000	0.000000	0.000000	0.000000	0.000000	1	1	0	0	0	0	0	0	0	0	0	0	0	0	0	0	0	0	0	1	0.000	0.000
68.000000	4065.641026	4499.487179	4208.205128	4462.564103	4121.538462	4542.051282	4204.615385	4839.487179	4243.589744	4472.820513	4232.307692	4353.846154	4464.102564	4470.769231	1615.000000	2111.000000	36.783000	0.000000	0.000000	0.000000	0.000000	1	1	0	0	0	0	0	0	0	0	0	0	0	0	0	0	0	0	0	1	0.000	0.000
69.000000	4064.102564	4500.512821	4209.743590	4461.538462	4120.512821	4540.512821	4205.128205	4840.000000	4243.589744	4474.358974	4232.307692	4353.846154	4467.692308	4471.794872	1615.000000	2115.000000	36.791000	0.000000	0.000000	0.000000	0.000000	1	1	0	0	0	0	0	0	0	0	0	0	0	0	0	0	0	0	0	1	0.000	0.000
70.000000	4063.076923	4502.564103	4210.769231	4462.564103	4121.538462	4542.564103	4206.666667	4840.000000	4242.051282	4472.820513	4231.282051	4349.743590	4465.128205	4467.692308	1615.000000	2111.000000	36.799000	0.000000	0.000000	0.000000	0.000000	1	1	0	0	0	0	0	0	0	0	0	0	0	0	0	0	0	0	0	1	0.000	0.000
71.000000	4067.179487	4500.000000	4211.282051	4461.538462	4119.487179	4542.051282	4202.564103	4842.564103	4244.102564	4468.717949	4229.230769	4352.820513	4463.589744	4468.205128	1615.000000	2111.000000	36.807000	0.000000	0.000000	0.000000	0.000000	1	1	0	0	0	0	0	0	0	0	0	0	0	0	0	0	0	0	0	1	0.000	0.000
72.000000	4064.102564	4498.974359	4210.769231	4462.051282	4121.538462	4545.128205	4204.615385	4843.589744	4244.102564	4468.205128	4228.205128	4354.871795	4464.102564	4473.846154	1615.000000	2111.000000	36.815000	0.000000	0.000000	0.000000	0.000000	1	1	0	0	0	0	0	0	0	0	0	0	0	0	0	0	0	0	0	1	0.000	0.000
73.000000	4062.564103	4502.051282	4211.282051	4461.538462	4122.564103	4540.000000	4202.564103	4842.564103	4242.564103	4472.307692	4231.282051	4352.820513	4467.692308	4473.846154	1619.000000	2115.000000	36.823000	0.000000	0.000000	0.000000	0.000000	1	1	0	0	0	0	0	0	0	0	0	0	0	0	0	0	0	0	0	1	0.000	0.000
74.000000	4063.589744	4503.076923	4212.307692	4460.512821	4124.102564	4539.487179	4204.615385	4842.051282	4241.025641	4471.794872	4232.307692	4351.282051	4463.589744	4468.205128	1615.000000	2115.000000	36.831000	0.000000	0.000000	0.000000	0.000000	1	1	0	0	0	0	0	0	0	0	0	0	0	0	0	0	0	0	0	1	0.000	0.000
